Data from HR4C34221__7__21-31-09-444.txt Node

Date: Fri Apr 11 21:31:09 MSK 2025
User: 123
Spectrometer: HR4C3422
Trigger mode: 4
Integration Time (sec): 4,000000E-3
Scans to average: 10
Electric dark correction enabled: true
Nonlinearity correction enabled: false
Boxcar width: 0
XAxis mode: Wavelengths
Number of Pixels in Spectrum: 3648
>>>>>Begin Spectral Data<<<<<
195,326	-640,36
195,597	-640,36
195,868	-640,36
196,139	-3,76
196,409	-2,76
196,68	0,64
196,951	-2,36
197,221	2,44
197,492	-7,66
197,762	-1,56
198,033	-0,46
198,304	-1,96
198,574	0,84
198,845	0,44
199,116	2,74
199,386	0,04
199,657	0,44
199,927	6,44
200,198	2,94
200,468	2,64
200,739	1,34
201,009	3,04
201,28	6,24
201,551	2,74
201,821	4,84
202,092	2,54
202,362	4,04
202,633	6,44
202,903	4,94
203,174	3,34
203,444	8,24
203,714	7,44
203,985	7,84
204,255	4,54
204,526	7,74
204,796	6,84
205,067	5,84
205,337	6,84
205,607	9,74
205,878	10,34
206,148	10,54
206,419	4,54
206,689	6,34
206,959	6,84
207,23	9,14
207,5	9,04
207,77	9,04
208,041	2,94
208,311	8,64
208,581	4,24
208,852	6,14
209,122	9,94
209,392	7,64
209,663	4,44
209,933	5,74
210,203	10,74
210,473	8,94
210,744	9,04
211,014	11,54
211,284	10,24
211,554	11,94
211,825	12,44
212,095	4,84
212,365	6,84
212,635	9,64
212,905	6,04
213,176	8,34
213,446	5,14
213,716	6,14
213,986	7,44
214,256	10,14
214,526	5,44
214,797	10,24
215,067	9,44
215,337	7,84
215,607	6,64
215,877	7,94
216,147	9,44
216,417	6,64
216,687	10,44
216,957	9,24
217,227	8,04
217,497	10,94
217,767	7,04
218,038	10,44
218,308	7,94
218,578	6,54
218,848	4,64
219,118	7,34
219,388	8,14
219,658	8,04
219,928	4,44
220,198	10,24
220,468	10,24
220,737	10,64
221,007	7,74
221,277	7,24
221,547	4,64
221,817	8,44
222,087	8,54
222,357	6,04
222,627	3,64
222,897	9,54
223,167	6,24
223,437	9,44
223,707	9,04
223,976	12,34
224,246	10,64
224,516	6,14
224,786	8,84
225,056	8,04
225,326	5,14
225,595	5,94
225,865	8,94
226,135	6,64
226,405	4,64
226,675	10,54
226,944	11,04
227,214	5,44
227,484	7,14
227,754	6,44
228,023	14,74
228,293	11,64
228,563	11,54
228,833	8,64
229,102	4,94
229,372	7,54
229,642	3,74
229,911	11,44
230,181	13,84
230,451	10,44
230,72	12,64
230,99	11,64
231,26	10,74
231,529	8,24
231,799	7,74
232,069	8,54
232,338	7,94
232,608	10,84
232,877	10,24
233,147	9,44
233,417	8,64
233,686	6,24
233,956	9,34
234,225	12,64
234,495	7,54
234,764	11,24
235,034	10,24
235,304	9,84
235,573	14,74
235,843	10,44
236,112	7,34
236,382	11,54
236,651	10,14
236,921	8,84
237,19	13,24
237,46	11,14
237,729	10,14
237,998	13,04
238,268	13,94
238,537	15,04
238,807	7,74
239,076	6,44
239,346	11,54
239,615	10,84
239,884	9,54
240,154	8,84
240,423	9,14
240,693	12,94
240,962	9,74
241,231	8,44
241,501	12,54
241,77	10,24
242,039	8,44
242,309	11,34
242,578	7,34
242,847	9,14
243,116	9,34
243,386	7,94
243,655	10,14
243,924	7,44
244,194	10,64
244,463	5,34
244,732	7,64
245,001	7,64
245,271	11,04
245,54	13,34
245,809	4,44
246,078	9,14
246,347	7,74
246,617	7,24
246,886	10,34
247,155	12,84
247,424	12,24
247,693	12,34
247,963	10,04
248,232	7,14
248,501	6,84
248,77	9,64
249,039	9,24
249,308	8,84
249,577	8,64
249,846	9,24
250,115	8,04
250,385	7,44
250,654	12,54
250,923	9,54
251,192	10,94
251,461	8,64
251,73	9,84
251,999	8,84
252,268	11,84
252,537	5,84
252,806	15,94
253,075	8,34
253,344	10,64
253,613	10,44
253,882	8,84
254,151	9,14
254,42	11,74
254,689	12,64
254,958	9,34
255,227	10,64
255,496	8,74
255,765	11,94
256,033	10,04
256,302	9,24
256,571	8,14
256,84	11,24
257,109	9,14
257,378	9,24
257,647	6,94
257,916	9,84
258,184	12,24
258,453	13,54
258,722	10,54
258,991	9,54
259,26	10,84
259,529	10,14
259,797	12,54
260,066	8,74
260,335	10,24
260,604	5,84
260,873	10,24
261,141	6,34
261,41	8,04
261,679	10,84
261,948	10,84
262,216	14,14
262,485	9,44
262,754	13,74
263,022	5,74
263,291	11,14
263,56	7,74
263,829	12,94
264,097	8,34
264,366	13,54
264,635	10,64
264,903	9,14
265,172	9,94
265,44	7,34
265,709	6,94
265,978	9,44
266,246	7,04
266,515	12,04
266,784	8,84
267,052	9,64
267,321	4,84
267,589	11,44
267,858	10,44
268,126	11,34
268,395	8,14
268,663	9,34
268,932	7,84
269,201	10,04
269,469	9,54
269,738	6,14
270,006	8,44
270,275	12,84
270,543	14,04
270,811	7,44
271,08	7,24
271,348	10,24
271,617	11,34
271,885	4,24
272,154	11,74
272,422	10,24
272,691	12,24
272,959	15,74
273,227	11,34
273,496	9,84
273,764	10,84
274,033	15,64
274,301	6,94
274,569	9,04
274,838	11,24
275,106	8,84
275,374	8,74
275,643	11,94
275,911	10,24
276,179	9,84
276,448	9,64
276,716	9,64
276,984	7,74
277,252	7,44
277,521	5,64
277,789	12,84
278,057	10,24
278,325	12,14
278,594	12,54
278,862	12,54
279,13	12,54
279,398	11,24
279,667	10,74
279,935	10,24
280,203	12,14
280,471	6,24
280,739	10,44
281,008	8,54
281,276	8,64
281,544	9,24
281,812	7,64
282,08	10,34
282,348	6,94
282,616	11,14
282,884	11,04
283,153	12,14
283,421	9,64
283,689	6,74
283,957	6,94
284,225	11,74
284,493	7,14
284,761	11,34
285,029	7,64
285,297	8,64
285,565	8,24
285,833	9,44
286,101	10,84
286,369	10,64
286,637	7,54
286,905	12,24
287,173	7,74
287,441	11,04
287,709	5,74
287,977	10,84
288,245	5,94
288,513	10,44
288,781	11,24
289,049	13,84
289,317	6,54
289,585	9,94
289,853	10,64
290,12	9,24
290,388	6,44
290,656	9,84
290,924	10,54
291,192	9,44
291,46	11,34
291,728	11,24
291,996	10,04
292,263	9,34
292,531	6,74
292,799	6,94
293,067	7,84
293,335	8,54
293,602	12,84
293,87	10,74
294,138	6,44
294,406	12,34
294,673	4,54
294,941	5,44
295,209	9,64
295,477	11,34
295,744	10,94
296,012	7,14
296,28	9,04
296,548	10,54
296,815	13,04
297,083	11,04
297,351	9,64
297,618	11,34
297,886	13,54
298,154	11,94
298,421	10,84
298,689	9,24
298,956	7,44
299,224	10,44
299,492	8,14
299,759	10,94
300,027	4,44
300,294	9,14
300,562	7,54
300,83	11,64
301,097	8,74
301,365	9,04
301,632	12,44
301,9	12,04
302,167	10,84
302,435	14,24
302,702	10,44
302,97	7,94
303,237	12,74
303,505	15,74
303,772	11,74
304,04	12,74
304,307	12,24
304,575	7,54
304,842	8,64
305,11	12,44
305,377	9,64
305,645	12,74
305,912	9,94
306,179	9,24
306,447	8,84
306,714	11,84
306,982	11,14
307,249	12,04
307,516	8,64
307,784	13,94
308,051	9,84
308,318	16,14
308,586	13,54
308,853	11,24
309,12	9,14
309,388	10,44
309,655	8,94
309,922	9,14
310,19	11,84
310,457	10,74
310,724	9,94
310,991	11,44
311,259	8,94
311,526	9,44
311,793	7,84
312,06	11,64
312,328	12,14
312,595	13,04
312,862	12,44
313,129	15,94
313,396	11,64
313,664	14,44
313,931	16,34
314,198	10,54
314,465	7,64
314,732	7,84
314,999	14,24
315,266	12,24
315,534	12,24
315,801	11,24
316,068	9,14
316,335	11,84
316,602	9,74
316,869	14,34
317,136	9,84
317,403	12,14
317,67	11,04
317,937	13,84
318,204	9,24
318,471	9,74
318,738	12,14
319,005	11,64
319,272	10,14
319,539	14,24
319,806	9,04
320,073	15,14
320,34	12,24
320,607	9,04
320,874	8,14
321,141	9,84
321,408	13,84
321,675	10,94
321,942	12,14
322,209	11,74
322,476	10,44
322,743	14,04
323,01	7,94
323,277	10,54
323,544	14,34
323,81	12,14
324,077	8,44
324,344	8,44
324,611	7,44
324,878	8,74
325,145	12,04
325,412	12,64
325,678	14,04
325,945	10,24
326,212	15,34
326,479	10,74
326,746	15,44
327,012	8,24
327,279	15,24
327,546	11,54
327,813	13,74
328,079	13,34
328,346	9,64
328,613	14,64
328,88	10,24
329,146	11,64
329,413	7,94
329,68	12,84
329,946	14,24
330,213	12,84
330,48	10,24
330,746	11,54
331,013	12,54
331,28	10,84
331,546	12,54
331,813	12,04
332,08	15,54
332,346	14,74
332,613	9,54
332,879	13,14
333,146	10,14
333,413	10,14
333,679	15,04
333,946	13,64
334,212	16,54
334,479	14,24
334,745	15,54
335,012	15,84
335,278	4,94
335,545	12,14
335,811	12,94
336,078	14,34
336,344	16,84
336,611	15,14
336,877	6,54
337,144	14,74
337,41	12,94
337,677	15,74
337,943	13,14
338,21	12,34
338,476	14,64
338,742	13,54
339,009	15,14
339,275	14,64
339,542	9,94
339,808	12,74
340,074	10,24
340,341	18,04
340,607	13,44
340,873	18,54
341,14	17,44
341,406	11,24
341,672	12,34
341,939	14,94
342,205	12,04
342,471	12,34
342,738	14,64
343,004	16,54
343,27	16,54
343,537	15,54
343,803	14,24
344,069	13,44
344,335	14,34
344,602	15,04
344,868	16,84
345,134	13,84
345,4	11,44
345,666	15,44
345,933	17,94
346,199	13,04
346,465	15,64
346,731	18,14
346,997	9,44
347,263	16,44
347,53	10,44
347,796	12,54
348,062	14,24
348,328	15,84
348,594	9,44
348,86	12,04
349,126	14,64
349,392	14,14
349,659	15,94
349,925	16,34
350,191	12,14
350,457	14,44
350,723	18,84
350,989	16,74
351,255	16,84
351,521	14,74
351,787	13,94
352,053	15,74
352,319	16,84
352,585	15,74
352,851	15,94
353,117	12,74
353,383	12,34
353,649	18,84
353,915	17,14
354,181	17,24
354,447	17,64
354,713	16,24
354,978	16,04
355,244	13,14
355,51	13,44
355,776	13,24
356,042	11,84
356,308	13,24
356,574	12,84
356,84	12,64
357,106	13,04
357,371	18,84
357,637	15,54
357,903	14,14
358,169	13,34
358,435	17,74
358,701	16,24
358,966	19,64
359,232	20,54
359,498	13,44
359,764	9,24
360,029	18,84
360,295	17,74
360,561	16,64
360,827	15,54
361,092	18,54
361,358	17,64
361,624	17,54
361,89	13,54
362,155	14,54
362,421	19,04
362,687	19,64
362,952	15,94
363,218	17,34
363,484	15,84
363,749	17,24
364,015	17,04
364,281	20,14
364,546	17,34
364,812	17,34
365,077	13,14
365,343	14,84
365,609	14,84
365,874	16,64
366,14	13,64
366,405	21,84
366,671	15,84
366,936	15,24
367,202	17,44
367,467	18,74
367,733	22,84
367,999	17,94
368,264	16,34
368,53	20,94
368,795	16,44
369,061	20,74
369,326	17,64
369,591	18,94
369,857	17,94
370,122	20,94
370,388	12,24
370,653	17,24
370,919	20,34
371,184	20,44
371,45	18,34
371,715	21,94
371,98	16,74
372,246	18,64
372,511	20,84
372,776	21,24
373,042	17,64
373,307	19,44
373,573	16,94
373,838	16,64
374,103	21,14
374,369	22,14
374,634	18,94
374,899	18,24
375,164	21,14
375,43	24,24
375,695	19,14
375,96	23,04
376,226	24,24
376,491	18,14
376,756	20,04
377,021	21,44
377,286	20,34
377,552	21,54
377,817	21,84
378,082	19,84
378,347	20,24
378,613	22,94
378,878	20,64
379,143	18,34
379,408	21,44
379,673	19,64
379,938	22,84
380,203	22,34
380,469	22,64
380,734	24,34
380,999	21,84
381,264	18,84
381,529	21,54
381,794	22,84
382,059	18,54
382,324	26,14
382,589	21,64
382,854	23,14
383,119	23,64
383,385	20,64
383,65	23,04
383,915	17,04
384,18	23,14
384,445	22,44
384,71	19,94
384,975	25,24
385,24	23,54
385,505	25,04
385,77	23,14
386,034	25,54
386,299	24,04
386,564	25,34
386,829	22,94
387,094	22,44
387,359	22,04
387,624	20,74
387,889	21,74
388,154	21,94
388,419	20,74
388,684	27,04
388,949	27,94
389,213	24,94
389,478	23,74
389,743	23,64
390,008	26,74
390,273	26,44
390,538	23,84
390,802	30,94
391,067	25,54
391,332	28,34
391,597	25,64
391,862	26,64
392,126	23,74
392,391	26,54
392,656	27,04
392,921	25,54
393,185	28,24
393,45	26,44
393,715	21,54
393,979	23,64
394,244	29,04
394,509	29,14
394,774	26,64
395,038	33,84
395,303	31,14
395,568	26,54
395,832	25,14
396,097	28,84
396,361	25,94
396,626	25,34
396,891	22,84
397,155	25,84
397,42	26,94
397,685	26,94
397,949	24,34
398,214	29,84
398,478	26,84
398,743	25,14
399,007	30,24
399,272	29,14
399,536	29,44
399,801	31,44
400,066	27,44
400,33	34,34
400,595	31,14
400,859	33,04
401,124	28,04
401,388	35,24
401,652	32,24
401,917	33,54
402,181	27,94
402,446	32,14
402,71	31,14
402,975	33,64
403,239	31,94
403,504	35,24
403,768	30,84
404,032	35,14
404,297	33,14
404,561	35,64
404,826	35,34
405,09	34,54
405,354	34,34
405,619	35,14
405,883	34,34
406,147	36,34
406,412	34,44
406,676	37,74
406,94	35,64
407,205	38,24
407,469	34,94
407,733	38,94
407,997	40,04
408,262	41,64
408,526	40,44
408,79	44,24
409,054	37,44
409,319	41,14
409,583	39,04
409,847	44,14
410,111	44,74
410,375	48,14
410,64	50,44
410,904	47,24
411,168	52,04
411,432	49,44
411,696	54,14
411,96	55,24
412,225	55,14
412,489	59,24
412,753	57,64
413,017	59,74
413,281	59,84
413,545	63,24
413,809	62,44
414,073	65,04
414,337	69,14
414,602	75,74
414,866	75,24
415,13	76,94
415,394	79,94
415,658	81,24
415,922	86,44
416,186	87,04
416,45	89,44
416,714	100,14
416,978	96,64
417,242	105,34
417,506	112,74
417,77	114,54
418,034	118,54
418,298	125,84
418,562	125,64
418,825	134,44
419,089	138,64
419,353	144,24
419,617	153,34
419,881	161,54
420,145	168,04
420,409	177,54
420,673	181,04
420,937	192,54
421,2	198,64
421,464	215,04
421,728	221,04
421,992	230,34
422,256	248,34
422,52	253,64
422,783	266,84
423,047	281,54
423,311	300,14
423,575	309,54
423,839	326,74
424,102	333,84
424,366	354,34
424,63	376,14
424,894	388,84
425,157	408,64
425,421	419,84
425,685	445,34
425,949	478,84
426,212	502,14
426,476	507,94
426,74	534,94
427,003	557,94
427,267	589,44
427,531	616,84
427,794	656,04
428,058	683,44
428,322	691,84
428,585	739,64
428,849	767,54
429,112	809,54
429,376	839,34
429,64	864,64
429,903	915,44
430,167	942,54
430,43	1009,14
430,694	1053,24
430,957	1071,34
431,221	1126,14
431,485	1183,04
431,748	1218,04
432,012	1289,24
432,275	1311,64
432,539	1378,84
432,802	1433,04
433,066	1487,04
433,329	1536,04
433,593	1643,64
433,856	1651,24
434,119	1733,24
434,383	1805,74
434,646	1841,04
434,91	1908,64
435,173	2039,84
435,437	2073,24
435,7	2118,14
435,963	2211,74
436,227	2290,64
436,49	2385,24
436,753	2423,84
437,017	2493,44
437,28	2621,34
437,544	2744,14
437,807	2810,64
438,07	2836,54
438,334	2976,64
438,597	3058,64
438,86	3193,94
439,123	3320,34
439,387	3382,94
439,65	3522,14
439,913	3726,14
440,177	3712,34
440,44	3871,74
440,703	4085,84
440,966	4099,84
441,229	4322,54
441,493	4439,04
441,756	4702,64
442,019	4763,94
442,282	4834,84
442,545	5051,54
442,809	5214,94
443,072	5377,34
443,335	5696,14
443,598	5951,44
443,861	5995,14
444,124	6211,44
444,388	6554,34
444,651	6724,14
444,914	6886,34
445,177	7153,14
445,44	7254,64
445,703	7503,84
445,966	7888,94
446,229	8191,54
446,492	8344,64
446,755	8884,24
447,018	8925,84
447,281	9225,54
447,544	9505,94
447,807	9822,54
448,07	10296,74
448,333	10438,54
448,596	10807,94
448,859	11292,64
449,122	11469,54
449,385	11635,74
449,648	12198,64
449,911	12338,94
450,174	12854,34
450,437	13032,54
450,7	13218,04
450,963	13287,14
451,226	13822,64
451,489	14011,54
451,752	14437,64
452,015	14574,04
452,277	14522,24
452,54	14870,34
452,803	14948,74
453,066	15071,34
453,329	15227,64
453,592	15354,44
453,855	15312,84
454,117	15511,54
454,38	15455,74
454,643	15631,74
454,906	15557,84
455,169	15635,94
455,431	15595,14
455,694	15583,84
455,957	15567,14
456,22	15631,54
456,482	15474,34
456,745	15569,24
457,008	15503,54
457,271	15470,64
457,533	15417,14
457,796	15331,14
458,059	15167,94
458,321	14802,54
458,584	14632,84
458,847	14438,24
459,109	13909,24
459,372	14180,94
459,635	13605,84
459,897	13437,24
460,16	13332,04
460,423	13111,54
460,685	12699,94
460,948	12615,34
461,21	12392,34
461,473	12075,64
461,735	11663,54
461,998	11562,24
462,261	11289,74
462,523	11355,24
462,786	11064,14
463,048	10773,04
463,311	10639,64
463,573	10438,94
463,836	10125,74
464,098	9857,64
464,361	9581,84
464,623	9433,94
464,886	9389,44
465,148	9515,34
465,411	9408,54
465,673	9440,04
465,936	9215,84
466,198	9109,74
466,46	8948,94
466,723	8856,34
466,985	8742,94
467,248	8692,04
467,51	8603,64
467,772	8565,24
468,035	8481,54
468,297	8463,94
468,56	8287,14
468,822	8285,44
469,084	8232,24
469,347	8032,54
469,609	8067,24
469,871	8166,94
470,133	8011,84
470,396	8062,14
470,658	7897,54
470,92	7807,34
471,183	7997,64
471,445	7790,04
471,707	7755,94
471,969	7703,54
472,232	7612,24
472,494	7632,24
472,756	7641,44
473,018	7414,04
473,281	7566,24
473,543	7480,34
473,805	7299,84
474,067	7348,64
474,329	7183,44
474,591	7218,84
474,854	7227,74
475,116	7009,64
475,378	6992,44
475,64	6879,94
475,902	6722,24
476,164	6813,84
476,426	6725,64
476,688	6634,74
476,951	6492,54
477,213	6447,24
477,475	6367,74
477,737	6414,94
477,999	6321,14
478,261	6218,84
478,523	6151,04
478,785	6121,94
479,047	6088,34
479,309	5986,44
479,571	5935,54
479,833	5831,14
480,095	5800,64
480,357	5799,54
480,619	5617,44
480,881	5640,54
481,143	5541,94
481,405	5493,94
481,667	5501,04
481,929	5480,74
482,191	5438,74
482,452	5376,74
482,714	5361,14
482,976	5289,44
483,238	5344,24
483,5	5318,34
483,762	5230,64
484,024	5326,54
484,286	5242,94
484,547	5216,44
484,809	5154,64
485,071	5203,54
485,333	5185,74
485,595	5129,64
485,857	5124,14
486,118	5127,74
486,38	5136,74
486,642	5144,74
486,904	5121,04
487,165	5112,74
487,427	5085,04
487,689	5098,04
487,951	5111,54
488,212	5067,74
488,474	5067,14
488,736	5056,74
488,998	5053,34
489,259	5021,34
489,521	5050,84
489,783	5055,34
490,044	5060,04
490,306	5063,34
490,568	5037,74
490,829	5029,24
491,091	4990,14
491,353	5055,94
491,614	5013,84
491,876	5021,64
492,137	5038,04
492,399	5051,24
492,661	5043,84
492,922	5058,54
493,184	5059,04
493,445	5078,64
493,707	5086,14
493,968	5085,54
494,23	5161,24
494,491	5108,94
494,753	5131,84
495,014	5145,44
495,276	5175,64
495,537	5157,44
495,799	5196,24
496,06	5234,14
496,322	5270,64
496,583	5283,54
496,845	5300,34
497,106	5335,84
497,368	5369,84
497,629	5392,64
497,89	5451,54
498,152	5478,04
498,413	5550,74
498,675	5571,84
498,936	5586,54
499,197	5641,24
499,459	5713,94
499,72	5720,94
499,981	5800,54
500,243	5863,84
500,504	5883,54
500,765	5951,74
501,027	6034,14
501,288	6099,14
501,549	6128,64
501,811	6157,14
502,072	6221,84
502,333	6287,94
502,594	6332,44
502,856	6435,64
503,117	6479,34
503,378	6521,34
503,639	6598,04
503,901	6698,64
504,162	6702,44
504,423	6790,44
504,684	6874,74
504,945	6935,04
505,207	7023,84
505,468	7112,34
505,729	7134,24
505,99	7272,74
506,251	7323,84
506,512	7385,14
506,774	7489,04
507,035	7549,44
507,296	7606,54
507,557	7641,14
507,818	7717,74
508,079	7816,84
508,34	7898,74
508,601	7990,34
508,862	8039,54
509,123	8164,04
509,384	8173,54
509,645	8252,44
509,906	8354,74
510,167	8378,34
510,428	8496,34
510,689	8572,34
510,95	8600,84
511,211	8708,64
511,472	8738,24
511,733	8849,84
511,994	8901,74
512,255	8978,54
512,516	9030,94
512,777	9134,84
513,038	9191,44
513,299	9328,24
513,56	9381,44
513,821	9438,54
514,082	9518,24
514,343	9591,64
514,603	9681,24
514,864	9692,84
515,125	9775,54
515,386	9815,04
515,647	9920,54
515,908	9953,64
516,169	10027,84
516,429	10150,54
516,69	10181,04
516,951	10248,94
517,212	10333,84
517,473	10360,94
517,733	10395,94
517,994	10490,34
518,255	10522,94
518,516	10600,14
518,776	10627,34
519,037	10731,64
519,298	10793,04
519,559	10906,84
519,819	10931,14
520,08	11032,64
520,341	11074,34
520,601	11124,34
520,862	11168,14
521,123	11183,74
521,383	11264,94
521,644	11312,74
521,905	11332,74
522,165	11405,34
522,426	11551,54
522,686	11515,24
522,947	11595,04
523,208	11694,84
523,468	11704,44
523,729	11767,34
523,989	11812,44
524,25	11806,54
524,51	11898,34
524,771	11909,44
525,032	11967,14
525,292	12041,54
525,553	12043,04
525,813	12138,24
526,074	12192,94
526,334	12213,84
526,595	12271,94
526,855	12287,34
527,116	12343,34
527,376	12334,94
527,636	12367,94
527,897	12434,54
528,157	12425,64
528,418	12518,54
528,678	12510,44
528,939	12520,94
529,199	12603,54
529,459	12674,64
529,72	12720,04
529,98	12697,34
530,24	12711,84
530,501	12758,54
530,761	12723,64
531,022	12766,04
531,282	12776,54
531,542	12857,94
531,803	12886,34
532,063	12851,54
532,323	12856,84
532,583	12935,04
532,844	12986,84
533,104	12946,34
533,364	12974,44
533,624	12968,24
533,885	13002,14
534,145	12995,64
534,405	13010,54
534,665	13044,54
534,926	13067,14
535,186	13051,04
535,446	13066,84
535,706	13060,94
535,966	13067,04
536,227	13031,24
536,487	13063,04
536,747	13096,64
537,007	13090,74
537,267	13133,14
537,527	13169,34
537,787	13169,84
538,048	13158,74
538,308	13206,54
538,568	13166,24
538,828	13167,44
539,088	13163,54
539,348	13244,84
539,608	13206,74
539,868	13175,54
540,128	13243,24
540,388	13162,54
540,648	13204,34
540,908	13188,74
541,168	13199,34
541,428	13243,44
541,688	13210,34
541,948	13201,94
542,208	13190,14
542,468	13237,74
542,728	13241,54
542,988	13251,24
543,248	13191,94
543,508	13256,54
543,768	13186,14
544,028	13263,84
544,288	13240,14
544,548	13244,24
544,807	13239,04
545,067	13215,84
545,327	13262,54
545,587	13210,04
545,847	13240,04
546,107	13237,44
546,367	13244,24
546,626	13269,54
546,886	13226,24
547,146	13184,04
547,406	13212,34
547,666	13199,44
547,925	13244,84
548,185	13177,24
548,445	13210,54
548,705	13212,44
548,965	13247,84
549,224	13272,54
549,484	13210,04
549,744	13177,64
550,003	13210,64
550,263	13175,04
550,523	13154,04
550,783	13150,84
551,042	13129,64
551,302	13174,44
551,562	13119,94
551,821	13084,44
552,081	13104,14
552,341	13181,64
552,6	13124,24
552,86	13093,64
553,119	13127,14
553,379	13081,04
553,639	13077,94
553,898	13110,34
554,158	13029,94
554,417	13068,64
554,677	13072,94
554,936	13083,24
555,196	13045,44
555,456	13044,04
555,715	12996,34
555,975	13041,34
556,234	13007,84
556,494	13036,04
556,753	12945,54
557,013	12967,74
557,272	12954,44
557,532	12995,34
557,791	12932,94
558,051	12991,54
558,31	12918,84
558,569	12939,64
558,829	12931,44
559,088	12923,44
559,348	12915,34
559,607	12903,54
559,866	12835,04
560,126	12838,94
560,385	12818,94
560,645	12846,44
560,904	12780,54
561,163	12755,14
561,423	12779,54
561,682	12762,24
561,941	12760,44
562,201	12685,34
562,46	12775,24
562,719	12626,74
562,979	12668,14
563,238	12686,14
563,497	12656,54
563,756	12637,54
564,016	12673,04
564,275	12683,34
564,534	12686,44
564,793	12659,54
565,053	12625,64
565,312	12660,24
565,571	12633,04
565,83	12570,94
566,089	12538,84
566,349	12512,04
566,608	12554,44
566,867	12522,34
567,126	12445,74
567,385	12472,94
567,644	12453,14
567,903	12414,64
568,163	12411,74
568,422	12324,64
568,681	12360,74
568,94	12365,64
569,199	12270,04
569,458	12262,84
569,717	12252,14
569,976	12259,74
570,235	12219,34
570,494	12195,54
570,753	12217,74
571,012	12228,34
571,271	12096,74
571,53	12107,44
571,789	12140,24
572,048	12126,04
572,307	12097,54
572,566	12068,84
572,825	11998,74
573,084	11996,24
573,343	12015,94
573,602	11967,64
573,861	11890,64
574,12	11897,94
574,379	11865,04
574,638	11845,74
574,897	11770,24
575,156	11877,04
575,414	11781,64
575,673	11705,64
575,932	11697,84
576,191	11653,14
576,45	11677,24
576,709	11647,14
576,968	11539,64
577,226	11528,24
577,485	11548,64
577,744	11531,24
578,003	11554,44
578,262	11475,14
578,52	11486,14
578,779	11464,24
579,038	11411,14
579,297	11386,04
579,555	11361,24
579,814	11357,44
580,073	11320,14
580,332	11282,94
580,59	11267,94
580,849	11188,64
581,108	11231,44
581,366	11130,44
581,625	11123,34
581,884	11089,74
582,142	11062,84
582,401	11017,84
582,66	11009,04
582,918	10977,74
583,177	10969,14
583,436	10864,54
583,694	10906,24
583,953	10861,34
584,211	10816,44
584,47	10809,64
584,728	10747,54
584,987	10698,84
585,246	10713,24
585,504	10619,84
585,763	10604,34
586,021	10625,04
586,28	10579,54
586,538	10508,24
586,797	10522,84
587,055	10397,94
587,314	10442,64
587,572	10367,84
587,831	10319,54
588,089	10281,04
588,348	10292,84
588,606	10186,34
588,864	10200,04
589,123	10176,54
589,381	10164,34
589,64	10115,44
589,898	10130,34
590,157	10047,24
590,415	9990,84
590,673	9943,54
590,932	9890,54
591,19	9830,24
591,448	9876,84
591,707	9770,94
591,965	9770,74
592,223	9772,34
592,482	9757,54
592,74	9686,74
592,998	9644,34
593,257	9670,94
593,515	9603,14
593,773	9560,54
594,031	9512,24
594,29	9508,24
594,548	9472,64
594,806	9444,94
595,064	9421,34
595,323	9352,24
595,581	9321,04
595,839	9320,44
596,097	9270,44
596,355	9178,24
596,613	9218,14
596,872	9156,64
597,13	9150,54
597,388	9074,84
597,646	9042,14
597,904	8970,54
598,162	8938,04
598,42	8913,24
598,679	8864,64
598,937	8856,44
599,195	8834,14
599,453	8805,24
599,711	8757,74
599,969	8752,64
600,227	8745,04
600,485	8675,24
600,743	8673,74
601,001	8591,54
601,259	8558,84
601,517	8536,44
601,775	8503,64
602,033	8462,74
602,291	8462,34
602,549	8344,04
602,807	8343,54
603,065	8323,44
603,323	8283,64
603,581	8270,24
603,839	8270,54
604,097	8225,94
604,355	8163,64
604,613	8142,94
604,871	8044,64
605,128	8083,24
605,386	8006,84
605,644	8000,64
605,902	7965,14
606,16	7933,94
606,418	7893,84
606,676	7798,94
606,933	7783,94
607,191	7754,54
607,449	7715,64
607,707	7685,84
607,965	7652,04
608,223	7614,34
608,48	7551,74
608,738	7578,74
608,996	7553,34
609,254	7472,04
609,511	7450,44
609,769	7449,54
610,027	7404,84
610,285	7367,24
610,542	7365,54
610,8	7298,04
611,058	7288,94
611,315	7271,84
611,573	7221,14
611,831	7192,24
612,088	7172,04
612,346	7133,64
612,604	7113,74
612,861	7042,44
613,119	7040,94
613,376	7032,94
613,634	6974,74
613,892	6926,64
614,149	6877,94
614,407	6860,24
614,664	6813,44
614,922	6852,14
615,18	6814,94
615,437	6802,24
615,695	6750,64
615,952	6753,74
616,21	6708,84
616,467	6668,24
616,725	6650,04
616,982	6588,04
617,24	6562,14
617,497	6558,24
617,755	6567,34
618,012	6481,74
618,27	6439,84
618,527	6395,24
618,784	6387,84
619,042	6303,14
619,299	6302,24
619,557	6307,44
619,814	6262,44
620,071	6249,64
620,329	6216,54
620,586	6166,94
620,844	6157,44
621,101	6136,94
621,358	6098,34
621,616	6105,54
621,873	6065,64
622,13	6009,94
622,388	5965,64
622,645	5935,04
622,902	5924,44
623,159	5877,34
623,417	5881,34
623,674	5826,14
623,931	5802,54
624,188	5768,74
624,446	5727,64
624,703	5732,94
624,96	5708,04
625,217	5641,84
625,475	5659,14
625,732	5595,94
625,989	5571,94
626,246	5533,54
626,503	5475,24
626,761	5508,54
627,018	5449,14
627,275	5415,54
627,532	5368,64
627,789	5360,14
628,046	5352,64
628,303	5300,54
628,56	5274,54
628,818	5223,24
629,075	5208,84
629,332	5177,34
629,589	5166,84
629,846	5156,64
630,103	5104,74
630,36	5074,44
630,617	5038,04
630,874	5027,74
631,131	5009,34
631,388	4972,54
631,645	4949,44
631,902	4932,94
632,159	4887,74
632,416	4865,44
632,673	4827,74
632,93	4788,24
633,187	4756,54
633,444	4715,64
633,701	4703,64
633,958	4690,14
634,215	4636,14
634,471	4638,24
634,728	4602,14
634,985	4563,24
635,242	4536,84
635,499	4517,44
635,756	4500,84
636,013	4458,64
636,27	4418,54
636,526	4411,84
636,783	4396,94
637,04	4351,04
637,297	4329,74
637,554	4300,24
637,81	4261,04
638,067	4235,24
638,324	4241,04
638,581	4204,44
638,838	4159,64
639,094	4145,94
639,351	4093,44
639,608	4112,24
639,864	4063,04
640,121	4043,84
640,378	4006,74
640,635	3998,84
640,891	3955,24
641,148	3910,04
641,405	3890,34
641,661	3873,84
641,918	3865,64
642,175	3852,74
642,431	3816,44
642,688	3801,44
642,944	3781,24
643,201	3751,34
643,458	3725,14
643,714	3678,24
643,971	3641,74
644,227	3605,04
644,484	3604,14
644,741	3585,04
644,997	3559,74
645,254	3507,84
645,51	3501,74
645,767	3469,34
646,023	3486,74
646,28	3442,74
646,536	3407,64
646,793	3381,94
647,049	3363,84
647,306	3324,74
647,562	3321,14
647,819	3310,14
648,075	3296,04
648,331	3269,44
648,588	3236,94
648,844	3222,74
649,101	3206,04
649,357	3182,84
649,613	3159,04
649,87	3108,54
650,126	3077,64
650,383	3061,94
650,639	3035,14
650,895	3008,64
651,152	3013,64
651,408	2984,24
651,664	2947,14
651,921	2953,74
652,177	2937,34
652,433	2912,64
652,689	2887,74
652,946	2848,84
653,202	2839,14
653,458	2823,24
653,715	2817,04
653,971	2778,34
654,227	2755,84
654,483	2737,34
654,739	2718,64
654,996	2702,34
655,252	2666,44
655,508	2653,24
655,764	2637,64
656,02	2592,54
656,277	2589,14
656,533	2582,24
656,789	2569,74
657,045	2545,84
657,301	2526,44
657,557	2501,04
657,813	2476,04
658,07	2466,74
658,326	2444,84
658,582	2423,64
658,838	2417,94
659,094	2407,44
659,35	2383,94
659,606	2364,74
659,862	2337,54
660,118	2332,74
660,374	2310,34
660,63	2286,64
660,886	2277,74
661,142	2258,64
661,398	2253,34
661,654	2218,24
661,91	2217,14
662,166	2202,74
662,422	2186,94
662,678	2166,84
662,934	2139,54
663,19	2128,14
663,446	2114,34
663,702	2103,74
663,957	2075,84
664,213	2079,14
664,469	2066,24
664,725	2065,64
664,981	2021,94
665,237	2007,04
665,493	2004,84
665,749	2001,84
666,004	1963,54
666,26	1944,44
666,516	1927,14
666,772	1942,44
667,028	1925,54
667,283	1905,94
667,539	1900,04
667,795	1878,94
668,051	1864,24
668,307	1847,24
668,562	1843,04
668,818	1820,54
669,074	1800,74
669,329	1785,94
669,585	1781,64
669,841	1755,44
670,097	1747,24
670,352	1739,54
670,608	1732,84
670,864	1712,84
671,119	1708,54
671,375	1706,74
671,631	1692,04
671,886	1677,04
672,142	1647,94
672,397	1633,74
672,653	1627,24
672,909	1617,94
673,164	1602,84
673,42	1589,14
673,675	1582,64
673,931	1569,14
674,186	1552,44
674,442	1549,74
674,698	1534,44
674,953	1524,44
675,209	1513,14
675,464	1499,94
675,72	1489,34
675,975	1482,04
676,231	1477,14
676,486	1468,44
676,742	1453,54
676,997	1437,34
677,252	1430,14
677,508	1423,64
677,763	1420,94
678,019	1407,14
678,274	1409,64
678,53	1385,14
678,785	1376,84
679,04	1366,24
679,296	1348,44
679,551	1346,54
679,806	1336,74
680,062	1317,14
680,317	1309,04
680,572	1301,14
680,828	1290,44
681,083	1285,74
681,338	1276,24
681,594	1266,94
681,849	1250,64
682,104	1233,64
682,36	1223,54
682,615	1222,14
682,87	1228,24
683,125	1209,64
683,381	1207,14
683,636	1191,94
683,891	1181,74
684,146	1163,84
684,401	1168,14
684,657	1159,24
684,912	1157,84
685,167	1137,74
685,422	1140,24
685,677	1132,04
685,932	1125,64
686,188	1115,14
686,443	1104,94
686,698	1083,24
686,953	1089,94
687,208	1079,74
687,463	1073,64
687,718	1056,54
687,973	1051,14
688,228	1048,54
688,483	1040,14
688,739	1042,14
688,994	1020,34
689,249	1009,14
689,504	1019,24
689,759	999,14
690,014	992,84
690,269	992,14
690,524	977,44
690,779	969,04
691,034	964,84
691,289	947,24
691,544	947,34
691,798	942,44
692,053	933,44
692,308	925,34
692,563	911,64
692,818	919,84
693,073	902,54
693,328	894,34
693,583	898,04
693,838	882,84
694,093	870,34
694,347	866,84
694,602	869,04
694,857	856,44
695,112	860,74
695,367	854,24
695,622	853,84
695,876	839,34
696,131	834,84
696,386	826,74
696,641	819,94
696,896	810,74
697,15	806,74
697,405	801,74
697,66	782,64
697,915	783,04
698,169	779,24
698,424	775,24
698,679	777,94
698,933	763,44
699,188	769,24
699,443	739,34
699,698	743,24
699,952	730,84
700,207	728,94
700,461	725,54
700,716	710,04
700,971	707,14
701,225	709,24
701,48	698,94
701,735	690,74
701,989	688,44
702,244	680,44
702,498	684,34
702,753	673,14
703,007	678,84
703,262	666,94
703,517	663,44
703,771	656,14
704,026	650,14
704,28	638,94
704,535	633,34
704,789	627,94
705,044	615,74
705,298	617,94
705,553	618,14
705,807	623,74
706,062	616,14
706,316	606,94
706,57	591,94
706,825	587,54
707,079	587,14
707,334	578,24
707,588	584,44
707,842	569,24
708,097	560,34
708,351	559,44
708,606	551,34
708,86	552,04
709,114	551,34
709,369	545,14
709,623	546,44
709,877	545,34
710,132	531,44
710,386	529,54
710,64	529,84
710,895	522,44
711,149	517,04
711,403	516,34
711,657	505,44
711,912	506,54
712,166	496,74
712,42	494,74
712,674	483,04
712,928	485,84
713,183	484,64
713,437	485,04
713,691	476,04
713,945	476,04
714,199	472,84
714,454	463,84
714,708	455,04
714,962	453,44
715,216	454,24
715,47	448,34
715,724	439,04
715,978	429,74
716,233	434,74
716,487	430,34
716,741	430,24
716,995	428,94
717,249	425,94
717,503	417,34
717,757	414,14
718,011	408,94
718,265	409,44
718,519	402,14
718,773	398,24
719,027	397,24
719,281	392,44
719,535	389,84
719,789	386,04
720,043	379,44
720,297	382,04
720,551	370,44
720,805	366,74
721,059	366,34
721,313	356,64
721,567	354,64
721,821	354,04
722,074	349,64
722,328	356,54
722,582	346,84
722,836	340,94
723,09	339,04
723,344	332,14
723,598	330,84
723,851	332,34
724,105	330,24
724,359	325,44
724,613	320,44
724,867	312,74
725,121	315,04
725,374	313,64
725,628	309,54
725,882	306,24
726,136	309,34
726,389	305,04
726,643	308,34
726,897	304,14
727,151	297,14
727,404	293,04
727,658	293,54
727,912	283,34
728,165	285,94
728,419	279,54
728,673	278,64
728,926	273,04
729,18	275,84
729,434	276,24
729,687	268,84
729,941	267,44
730,195	269,94
730,448	266,34
730,702	263,24
730,955	256,44
731,209	248,74
731,462	258,24
731,716	258,14
731,97	254,84
732,223	248,04
732,477	240,54
732,73	236,04
732,984	241,64
733,237	241,14
733,491	235,34
733,744	231,54
733,998	235,54
734,251	231,14
734,505	229,94
734,758	221,74
735,012	222,74
735,265	220,24
735,518	221,34
735,772	218,14
736,025	216,94
736,279	216,14
736,532	217,04
736,785	212,24
737,039	206,94
737,292	208,64
737,546	209,74
737,799	202,54
738,052	201,54
738,306	198,84
738,559	193,14
738,812	194,24
739,066	191,44
739,319	194,64
739,572	192,34
739,825	183,54
740,079	186,04
740,332	185,14
740,585	189,64
740,838	178,54
741,092	181,34
741,345	169,64
741,598	173,04
741,851	175,84
742,104	178,64
742,358	170,54
742,611	171,54
742,864	166,64
743,117	166,64
743,37	164,94
743,623	165,04
743,877	159,34
744,13	163,34
744,383	162,44
744,636	162,44
744,889	160,34
745,142	160,14
745,395	159,04
745,648	151,44
745,901	148,54
746,154	147,64
746,408	151,04
746,661	150,34
746,914	146,24
747,167	140,84
747,42	141,44
747,673	138,24
747,926	144,54
748,179	139,74
748,432	138,84
748,685	139,34
748,938	136,84
749,19	137,24
749,443	134,54
749,696	131,04
749,949	130,44
750,202	127,94
750,455	125,74
750,708	132,44
750,961	126,64
751,214	126,14
751,467	120,84
751,719	122,24
751,972	123,34
752,225	121,64
752,478	122,04
752,731	119,04
752,984	115,84
753,236	115,94
753,489	116,14
753,742	114,94
753,995	109,64
754,248	112,14
754,5	110,64
754,753	114,14
755,006	105,54
755,259	107,44
755,511	106,74
755,764	107,24
756,017	102,04
756,269	104,04
756,522	101,74
756,775	99,54
757,027	99,94
757,28	99,74
757,533	95,54
757,785	101,34
758,038	92,64
758,291	96,54
758,543	96,24
758,796	90,14
759,049	93,34
759,301	91,34
759,554	90,54
759,806	89,54
760,059	87,74
760,311	93,64
760,564	86,94
760,817	90,24
761,069	86,04
761,322	90,94
761,574	89,94
761,827	86,14
762,079	85,34
762,332	82,94
762,584	84,44
762,837	81,74
763,089	80,94
763,341	80,64
763,594	79,44
763,846	81,04
764,099	81,04
764,351	82,64
764,604	77,24
764,856	80,74
765,108	76,54
765,361	76,04
765,613	73,04
765,865	72,14
766,118	71,54
766,37	76,94
766,623	72,44
766,875	72,14
767,127	70,84
767,379	66,74
767,632	72,44
767,884	74,34
768,136	72,14
768,389	71,24
768,641	64,14
768,893	66,84
769,145	65,34
769,398	68,24
769,65	66,94
769,902	62,34
770,154	63,14
770,406	67,64
770,659	63,74
770,911	65,44
771,163	64,04
771,415	65,14
771,667	64,64
771,919	62,44
772,172	64,64
772,424	60,04
772,676	57,94
772,928	59,54
773,18	58,24
773,432	59,14
773,684	61,14
773,936	58,14
774,188	55,44
774,44	57,14
774,693	55,04
774,945	53,84
775,197	54,34
775,449	55,54
775,701	56,14
775,953	59,74
776,205	53,24
776,457	55,54
776,709	57,84
776,961	54,64
777,213	55,54
777,464	52,14
777,716	46,54
777,968	50,64
778,22	48,64
778,472	50,34
778,724	48,74
778,976	49,24
779,228	48,54
779,48	46,74
779,732	50,54
779,984	47,94
780,235	47,94
780,487	47,54
780,739	49,74
780,991	46,34
781,243	46,74
781,494	44,74
781,746	46,14
781,998	42,44
782,25	43,64
782,502	44,74
782,753	44,24
783,005	45,54
783,257	45,74
783,509	45,04
783,76	40,24
784,012	40,64
784,264	39,94
784,515	41,44
784,767	42,04
785,019	40,54
785,271	46,04
785,522	43,04
785,774	35,74
786,026	40,54
786,277	42,24
786,529	36,24
786,78	38,94
787,032	34,84
787,284	36,94
787,535	39,14
787,787	37,04
788,038	36,54
788,29	38,24
788,541	37,64
788,793	36,54
789,045	38,74
789,296	36,14
789,548	33,54
789,799	35,54
790,051	35,04
790,302	38,04
790,554	40,34
790,805	35,24
791,057	33,34
791,308	29,84
791,559	34,74
791,811	34,84
792,062	30,74
792,314	38,94
792,565	34,04
792,817	30,04
793,068	32,34
793,319	34,14
793,571	30,74
793,822	32,94
794,073	34,14
794,325	34,14
794,576	34,44
794,827	27,64
795,079	31,14
795,33	32,54
795,581	37,44
795,833	28,24
796,084	36,24
796,335	26,14
796,587	28,64
796,838	35,34
797,089	32,24
797,34	31,64
797,592	29,54
797,843	36,24
798,094	29,74
798,345	31,84
798,596	29,34
798,848	27,74
799,099	32,94
799,35	30,94
799,601	32,64
799,852	29,64
800,103	26,84
800,355	25,94
800,606	29,94
800,857	29,64
801,108	29,24
801,359	26,54
801,61	33,04
801,861	27,94
802,112	31,64
802,363	29,84
802,614	24,84
802,865	27,14
803,116	27,84
803,367	29,04
803,618	32,24
803,869	27,84
804,12	24,94
804,371	24,34
804,622	25,94
804,873	28,34
805,124	25,64
805,375	25,24
805,626	25,24
805,877	29,84
806,128	23,54
806,379	23,14
806,63	21,74
806,881	25,64
807,132	26,14
807,383	25,64
807,634	23,04
807,884	26,14
808,135	22,54
808,386	20,24
808,637	24,74
808,888	22,64
809,139	22,64
809,389	27,84
809,64	24,54
809,891	26,64
810,142	28,74
810,393	23,44
810,643	24,94
810,894	24,94
811,145	27,24
811,396	22,54
811,646	24,54
811,897	29,54
812,148	26,24
812,398	21,94
812,649	23,64
812,9	23,94
813,151	22,24
813,401	23,84
813,652	22,34
813,902	21,54
814,153	24,84
814,404	24,44
814,654	20,94
814,905	19,74
815,156	24,04
815,406	25,54
815,657	23,54
815,907	23,84
816,158	20,94
816,408	23,44
816,659	25,44
816,91	25,04
817,16	20,44
817,411	19,34
817,661	22,94
817,912	22,04
818,162	23,04
818,413	21,04
818,663	22,54
818,914	23,94
819,164	21,94
819,414	22,34
819,665	20,64
819,915	20,34
820,166	23,24
820,416	21,24
820,667	21,14
820,917	23,14
821,167	19,44
821,418	17,04
821,668	22,64
821,918	25,64
822,169	22,14
822,419	22,04
822,67	23,04
822,92	19,64
823,17	20,04
823,42	21,04
823,671	22,24
823,921	18,94
824,171	19,04
824,422	19,04
824,672	22,34
824,922	16,24
825,172	19,74
825,423	22,64
825,673	22,04
825,923	17,04
826,173	24,64
826,423	15,74
826,674	20,64
826,924	17,74
827,174	20,04
827,424	21,54
827,674	20,14
827,924	19,44
828,175	24,94
828,425	20,84
828,675	19,24
828,925	21,74
829,175	22,04
829,425	18,24
829,675	20,84
829,925	23,84
830,175	19,44
830,425	18,14
830,675	18,94
830,925	17,44
831,175	21,44
831,425	19,34
831,676	19,74
831,926	18,44
832,175	19,14
832,425	16,14
832,675	21,04
832,925	16,84
833,175	19,74
833,425	15,14
833,675	20,44
833,925	17,84
834,175	22,04
834,425	21,14
834,675	21,34
834,925	19,94
835,175	17,94
835,425	25,14
835,674	20,74
835,924	19,14
836,174	15,74
836,424	19,04
836,674	17,74
836,924	19,04
837,173	20,84
837,423	16,64
837,673	18,24
837,923	20,14
838,173	19,14
838,422	19,84
838,672	15,14
838,922	19,44
839,172	19,34
839,421	12,24
839,671	16,54
839,921	22,34
840,17	16,04
840,42	14,14
840,67	20,04
840,919	20,24
841,169	18,24
841,419	19,64
841,668	17,54
841,918	17,34
842,168	17,24
842,417	14,74
842,667	21,04
842,916	20,24
843,166	17,84
843,416	22,64
843,665	21,34
843,915	18,14
844,164	19,54
844,414	16,04
844,663	16,54
844,913	18,64
845,162	17,74
845,412	17,54
845,662	18,54
845,911	15,34
846,16	18,14
846,41	17,64
846,659	16,14
846,909	20,04
847,158	14,14
847,408	17,84
847,657	17,84
847,907	18,84
848,156	16,04
848,405	12,64
848,655	14,34
848,904	14,04
849,154	19,34
849,403	15,94
849,652	18,74
849,902	21,94
850,151	17,54
850,4	16,94
850,65	17,44
850,899	16,74
851,148	17,04
851,398	14,24
851,647	16,34
851,896	20,24
852,145	20,04
852,395	17,34
852,644	15,04
852,893	20,44
853,142	20,14
853,392	17,14
853,641	19,64
853,89	18,54
854,139	17,84
854,388	16,64
854,637	18,64
854,887	14,54
855,136	16,24
855,385	17,04
855,634	16,04
855,883	18,84
856,132	20,34
856,381	16,94
856,631	20,54
856,88	18,14
857,129	18,94
857,378	17,44
857,627	12,64
857,876	13,54
858,125	17,04
858,374	19,94
858,623	16,04
858,872	17,74
859,121	16,24
859,37	14,74
859,619	18,24
859,868	20,14
860,117	15,84
860,366	16,74
860,615	17,14
860,864	13,24
861,113	18,44
861,362	16,04
861,611	20,84
861,86	15,84
862,108	13,34
862,357	15,74
862,606	19,64
862,855	15,94
863,104	18,04
863,353	14,34
863,602	12,94
863,851	19,94
864,099	18,34
864,348	21,24
864,597	16,34
864,846	15,64
865,095	15,94
865,343	14,64
865,592	14,94
865,841	12,44
866,09	20,14
866,338	19,64
866,587	15,64
866,836	14,04
867,085	13,14
867,333	16,54
867,582	14,14
867,831	15,24
868,079	15,74
868,328	13,14
868,577	14,74
868,825	16,04
869,074	10,74
869,323	15,24
869,571	14,94
869,82	12,34
870,068	14,94
870,317	14,94
870,566	17,54
870,814	11,04
871,063	16,54
871,311	15,04
871,56	13,54
871,808	14,84
872,057	15,84
872,306	14,14
872,554	16,24
872,803	12,74
873,051	14,24
873,3	13,04
873,548	11,44
873,797	10,54
874,045	16,54
874,293	15,74
874,542	16,14
874,79	12,84
875,039	12,74
875,287	9,64
875,536	8,24
875,784	10,84
876,032	12,74
876,281	13,14
876,529	11,34
876,777	11,34
877,026	16,94
877,274	13,24
877,523	13,64
877,771	14,44
878,019	12,24
878,267	14,04
878,516	15,14
878,764	14,64
879,012	17,04
879,261	15,94
879,509	18,24
879,757	15,74
880,005	12,34
880,254	11,04
880,502	13,94
880,75	15,54
880,998	17,54
881,246	11,74
881,495	12,44
881,743	12,14
881,991	11,54
882,239	13,54
882,487	13,14
882,735	11,34
882,984	13,54
883,232	13,04
883,48	12,14
883,728	15,24
883,976	15,04
884,224	11,44
884,472	9,84
884,72	12,94
884,968	13,84
885,216	11,74
885,464	11,04
885,712	9,24
885,96	11,04
886,208	12,64
886,457	15,14
886,704	13,84
886,952	13,44
887,2	9,64
887,448	15,74
887,696	12,04
887,944	13,34
888,192	14,24
888,44	12,84
888,688	11,24
888,936	13,54
889,184	10,54
889,432	12,64
889,68	6,04
889,928	14,34
890,175	14,24
890,423	13,14
890,671	13,24
890,919	12,84
891,167	12,24
891,415	12,54
891,663	18,54
891,91	13,84
892,158	11,04
892,406	11,74
892,654	16,84
892,901	13,64
893,149	9,44
893,397	9,94
893,645	12,04
893,892	7,94
894,14	13,24
894,388	16,54
894,636	12,74
894,883	9,64
895,131	10,94
895,379	9,64
895,626	10,94
895,874	5,54
896,122	7,74
896,369	7,94
896,617	10,54
896,864	11,14
897,112	8,04
897,36	10,74
897,607	11,44
897,855	11,64
898,102	10,84
898,35	10,74
898,598	11,24
898,845	12,44
899,093	8,54
899,34	10,24
899,588	8,54
899,835	8,34
900,083	9,94
900,33	8,44
900,578	10,74
900,825	8,14
901,073	11,54
901,32	10,64
901,568	11,64
901,815	9,54
902,062	10,04
902,31	9,44
902,557	9,04
902,805	9,94
903,052	13,04
903,299	9,54
903,547	11,84
903,794	11,04
904,042	11,04
904,289	10,24
904,536	11,94
904,784	7,14
905,031	7,04
905,278	10,24
905,525	7,64
905,773	11,34
906,02	10,84
906,267	6,84
906,515	7,84
906,762	9,94
907,009	9,74
907,256	11,24
907,504	7,84
907,751	10,64
907,998	9,44
908,245	6,64
908,492	7,44
908,74	6,34
908,987	13,74
909,234	8,44
909,481	11,34
909,728	7,74
909,975	6,74
910,222	7,84
910,47	10,94
910,717	11,24
910,964	9,94
911,211	10,34
911,458	7,94
911,705	6,14
911,952	8,54
912,199	6,14
912,446	9,14
912,693	6,14
912,94	9,84
913,187	8,74
913,434	3,74
913,681	11,44
913,928	7,74
914,175	10,14
914,422	8,24
914,669	10,24
914,916	6,44
915,163	7,54
915,41	6,64
915,657	9,84
915,904	7,54
916,151	8,04
916,398	9,14
916,644	5,64
916,891	6,94
917,138	10,44
917,385	10,74
917,632	7,34
917,879	5,84
918,126	8,14
918,372	6,04
918,619	7,24
918,866	7,74
919,113	8,34
919,36	2,84
919,606	8,74
919,853	7,84
920,1	3,34
920,347	5,54
920,593	6,54
920,84	7,94
921,087	6,64
921,334	4,74
921,58	7,94
921,827	7,44
922,074	4,54
922,32	3,24
922,567	6,24
922,814	9,44
923,06	9,24
923,307	7,04
923,554	4,44
923,8	4,94
924,047	5,14
924,293	4,24
924,54	5,84
924,787	5,64
925,033	6,74
925,28	8,34
925,526	6,34
925,773	5,04
926,019	7,24
926,266	4,64
926,512	4,34
926,759	3,74
927,005	3,14
927,252	4,94
927,498	3,84
927,745	1,64
927,991	3,74
928,238	5,74
928,484	5,94
928,731	5,84
928,977	4,84
929,223	4,64
929,47	6,64
929,716	5,74
929,963	5,64
930,209	6,14
930,455	7,04
930,702	7,34
930,948	8,44
931,194	3,14
931,441	6,34
931,687	6,94
931,933	4,14
932,18	2,44
932,426	5,54
932,672	6,64
932,919	6,44
933,165	5,24
933,411	6,44
933,657	7,74
933,904	8,14
934,15	5,44
934,396	0,14
934,642	2,64
934,889	6,64
935,135	5,54
935,381	6,14
935,627	2,24
935,873	5,14
936,119	3,94
936,366	8,74
936,612	3,84
936,858	7,24
937,104	5,64
937,35	0,14
937,596	8,14
937,842	5,64
938,088	3,64
938,334	5,74
938,58	2,44
938,827	-1,06
939,073	2,94
939,319	3,54
939,565	2,14
939,811	6,34
940,057	3,04
940,303	6,74
940,549	6,14
940,795	7,14
941,041	4,64
941,287	2,94
941,533	0,64
941,778	2,74
942,024	2,94
942,27	2,94
942,516	2,54
942,762	6,74
943,008	2,54
943,254	6,84
943,5	1,94
943,746	4,14
943,992	1,34
944,237	3,94
944,483	2,04
944,729	3,04
944,975	2,84
945,221	3,34
945,467	3,74
945,712	3,84
945,958	4,14
946,204	2,84
946,45	2,44
946,695	5,44
946,941	1,04
947,187	5,04
947,433	2,64
947,678	5,74
947,924	1,84
948,17	0,94
948,415	4,94
948,661	1,64
948,907	4,44
949,153	4,34
949,398	4,04
949,644	6,84
949,889	5,44
950,135	8,14
950,381	-0,36
950,626	2,64
950,872	-0,46
951,118	1,74
951,363	1,84
951,609	1,94
951,854	0,44
952,1	-0,76
952,345	1,64
952,591	3,44
952,836	-0,76
953,082	4,24
953,327	3,14
953,573	4,44
953,818	2,14
954,064	2,04
954,309	0,14
954,555	7,54
954,8	4,74
955,046	3,94
955,291	5,14
955,537	5,34
955,782	4,04
956,027	3,54
956,273	4,54
956,518	3,04
956,764	4,24
957,009	5,54
957,254	6,24
957,5	3,34
957,745	4,04
957,99	6,54
958,236	4,04
958,481	3,14
958,726	5,74
958,972	6,64
959,217	7,44
959,462	5,84
959,707	2,84
959,953	3,34
960,198	6,14
960,443	7,34
960,688	2,14
960,934	6,74
961,179	5,64
961,424	4,34
961,669	1,74
961,914	4,74
962,16	7,54
962,405	3,34
962,65	4,64
962,895	3,24
963,14	5,04
963,385	3,24
963,63	6,04
963,876	3,54
964,121	4,84
964,366	4,54
964,611	5,54
964,856	3,04
965,101	2,94
965,346	2,94
965,591	3,74
965,836	0,64
966,081	-0,56
966,326	-0,76
966,571	3,94
966,816	1,84
967,061	2,54
967,306	6,04
967,551	2,74
967,796	2,44
968,041	4,34
968,286	0,24
968,531	2,54
968,776	2,74
969,021	3,14
969,266	3,04
969,511	1,74
969,755	2,24
970	4,54
970,245	4,64
970,49	3,04
970,735	6,04
970,98	-0,16
971,225	0,74
971,469	2,64
971,714	2,44
971,959	6,24
972,204	5,54
972,449	4,04
972,693	3,04
972,938	5,34
973,183	8,84
973,428	4,24
973,672	6,74
973,917	6,24
974,162	3,54
974,407	6,74
974,651	0,44
974,896	4,94
975,141	4,94
975,385	3,44
975,63	2,34
975,875	3,64
976,119	4,54
976,364	3,24
976,608	2,14
976,853	0,84
977,098	3,84
977,342	-1,46
977,587	3,14
977,831	6,04
978,076	5,04
978,321	4,94
978,565	7,54
978,81	1,94
979,054	1,14
979,299	3,74
979,543	6,54
979,788	4,34
980,032	5,84
980,277	3,24
980,521	4,04
980,766	-0,86
981,01	1,24
981,255	-0,56
981,499	0,04
981,743	3,04
981,988	6,24
982,232	4,54
982,477	7,04
982,721	6,64
982,965	8,84
983,21	6,44
983,454	1,74
983,699	3,74
983,943	1,74
984,187	2,14
984,432	0,24
984,676	3,84
984,92	3,64
985,165	2,34
985,409	7,14
985,653	3,34
985,897	4,54
986,142	6,04
986,386	9,44
986,63	2,34
986,874	5,34
987,119	5,34
987,363	1,64
987,607	0,34
987,851	2,64
988,095	2,54
988,34	4,14
988,584	4,84
988,828	4,94
989,072	5,44
989,316	8,64
989,56	4,34
989,804	4,94
990,049	3,14
990,293	7,14
990,537	6,04
990,781	1,64
991,025	3,94
991,269	4,94
991,513	3,84
991,757	2,64
992,001	1,84
992,245	3,74
992,489	1,94
992,733	7,54
992,977	4,94
993,221	8,04
993,465	6,64
993,709	5,94
993,953	1,34
994,197	6,94
994,441	4,44
994,685	2,34
994,929	2,74
995,173	3,24
995,417	4,34
995,661	9,14
995,904	5,94
996,148	6,44
996,392	3,84
996,636	5,14
996,88	5,24
997,124	6,74
997,368	3,94
997,611	4,44
997,855	-1,46
998,099	5,94
998,343	5,44
998,587	2,84
998,83	2,24
999,074	5,04
999,318	2,54
999,562	3,74
999,805	5,64
1000,049	6,74
1000,293	7,04
1000,537	9,94
1000,78	5,64
1001,024	5,84
1001,268	2,44
1001,511	5,14
1001,755	4,04
1001,999	1,64
1002,242	4,54
1002,486	5,14
1002,73	6,74
1002,973	6,14
1003,217	6,84
1003,46	3,74
1003,704	4,34
1003,948	6,14
1004,191	5,14
1004,435	4,44
1004,678	5,34
1004,922	9,14
1005,165	5,84
1005,409	7,24
1005,652	0,24
1005,896	7,04
1006,139	5,14
1006,383	6,34
1006,626	9,64
1006,87	5,04
1007,113	5,14
1007,357	8,14
1007,6	8,24
1007,844	5,24
1008,087	7,74
1008,33	4,34
1008,574	6,14
1008,817	6,64
1009,061	4,24
1009,304	4,54
1009,547	5,04
1009,791	4,64
1010,034	3,94
1010,277	7,84
1010,521	8,74
1010,764	10,54
1011,007	7,84
1011,251	6,74
1011,494	-0,46
1011,737	4,54
1011,98	1,54
1012,224	10,84
1012,467	5,04
1012,71	7,84
1012,953	2,14
1013,197	9,34
1013,44	7,14
1013,683	6,04
1013,926	6,24
1014,169	6,54
1014,413	6,14
1014,656	6,44
1014,899	6,54
1015,142	11,84
1015,385	5,04
1015,628	5,84
1015,871	9,84
1016,115	5,94
1016,358	7,74
1016,601	7,24
1016,844	9,74
1017,087	6,94
1017,33	9,14
1017,573	7,24
1017,816	6,04
1018,059	8,34
1018,302	6,44
1018,545	9,04
1018,788	4,64
1019,031	11,04
1019,274	9,34
1019,517	6,94
1019,76	9,14
1020,003	5,64
1020,246	7,34
1020,489	7,14
1020,732	5,24
1020,975	7,84
1021,218	7,44
1021,461	7,34
1021,703	7,24
1021,946	7,24
1022,189	7,64
1022,432	7,94
1022,675	5,94
1022,918	7,94
1023,161	6,64
1023,403	6,54
1023,646	6,84
1023,889	8,64
1024,132	4,44
1024,375	7,94
1024,617	9,64
1024,86	5,14
1025,103	5,44
1025,346	9,74
1025,588	9,34
1025,831	6,84
1026,074	7,94
1026,317	4,24
1026,559	9,34
1026,802	7,94
1027,045	9,44
1027,287	7,04
1027,53	7,74
1027,773	8,54
1028,015	6,74
1028,258	5,84
1028,501	9,14
1028,743	0,84
1028,986	4,64
1029,228	10,34
1029,471	4,64
1029,714	9,34
1029,956	7,44
1030,199	13,34
1030,441	10,54
1030,684	6,74
1030,926	10,24
1031,169	9,94
1031,411	4,24
1031,654	7,44
1031,896	9,84
1032,139	8,24
1032,381	6,74
1032,624	5,94
1032,866	8,94
1033,109	6,54
1033,351	7,94
1033,594	8,34
1033,836	6,54
1034,079	7,34
1034,321	6,64
1034,563	7,04
1034,806	10,24
1035,048	9,34
1035,29	6,74
1035,533	8,44
1035,775	7,54
1036,018	12,94
1036,26	6,94
1036,502	8,64
1036,744	7,64
1036,987	9,24
1037,229	9,54
1037,471	10,04
1037,714	10,14
1037,956	8,14
1038,198	6,24
1038,44	7,84
1038,683	7,64
1038,925	8,44
1039,167	9,34
1039,409	5,84
1039,651	10,14
1039,894	8,34
1040,136	11,04
1040,378	8,54
1040,62	10,04
1040,862	9,74
1041,104	7,64
1041,347	5,14
1041,589	8,34
1041,831	11,04
1042,073	8,94
1042,315	12,94
1042,557	10,54
1042,799	9,14
1043,041	6,34
1043,283	7,74
1043,525	8,24
1043,767	11,04
1044,009	7,24
1044,251	7,94
1044,493	10,34
1044,735	8,84
1044,977	5,54
1045,219	5,74
1045,461	14,04
1045,703	12,44
1045,945	8,04
1046,187	9,64
1046,429	12,74
1046,671	9,94
1046,913	8,24
1047,155	6,64
1047,397	7,64
1047,639	10,24
1047,881	4,64
1048,122	10,24
1048,364	8,84
1048,606	5,54
1048,848	10,24
1049,09	8,94
1049,332	10,64
1049,573	10,84
1049,815	7,14
1050,057	9,14
1050,299	11,14
1050,541	8,94
1050,782	8,84
1051,024	8,04
1051,266	7,44
1051,508	8,14
1051,749	9,14
1051,991	9,74
1052,233	12,84
1052,474	8,94
1052,716	11,34
1052,958	5,64
1053,199	11,54
1053,441	8,04
1053,683	11,44
1053,924	6,94
1054,166	9,24
1054,408	8,34
1054,649	11,94
1054,891	6,94
1055,132	7,94
1055,374	9,34
1055,616	7,24
1055,857	8,04
1056,099	11,84
1056,34	10,14
1056,582	4,94
1056,823	9,64
1057,065	8,14
1057,306	7,54
1057,548	8,44
1057,789	8,24
1058,031	8,54
1058,272	6,74
1058,514	8,14
1058,755	10,84
1058,997	8,54
1059,238	7,64
1059,479	8,74
1059,721	6,64
1059,962	8,54
1060,204	8,44
1060,445	9,44
1060,686	8,64
1060,928	8,24
1061,169	10,14
1061,41	10,04
1061,652	9,14
1061,893	10,44
1062,134	12,04
1062,376	8,94
1062,617	9,54
1062,858	7,34
1063,1	10,24
1063,341	9,74
1063,582	9,04
1063,823	10,44
1064,065	10,64
1064,306	12,54
1064,547	11,84
1064,788	7,04
1065,029	9,94
1065,271	7,84
1065,512	8,24
1065,753	9,54
1065,994	9,74
1066,235	9,84
1066,476	5,94
1066,718	10,24
1066,959	7,94
1067,2	5,84
1067,441	9,34
1067,682	13,54
1067,923	8,44
1068,164	4,54
1068,405	10,54
1068,646	8,24
1068,887	8,54
1069,128	7,54
1069,369	9,44
1069,61	9,54
1069,851	10,34
1070,092	10,74
1070,333	5,94
1070,574	9,74
1070,815	9,54
1071,056	8,14
1071,297	10,44
1071,538	11,74
1071,779	8,44
1072,02	8,44
1072,261	6,14
1072,502	5,94
1072,743	11,44
1072,984	7,14
1073,225	6,84
1073,466	8,54
1073,706	10,64
1073,947	10,14
1074,188	10,14
1074,429	9,94
1074,67	7,74
1074,911	6,14
1075,151	8,54
1075,392	6,84
1075,633	7,54
1075,874	10,44
1076,114	6,24
1076,355	8,24
1076,596	9,14
1076,837	7,04
1077,077	9,14
1077,318	10,04
1077,559	7,54
1077,8	6,84
1078,04	8,74
1078,281	10,94
1078,522	7,34
1078,762	10,54
1079,003	8,54
1079,244	6,44
1079,484	10,54
1079,725	10,44
1079,965	11,24
1080,206	9,04
1080,447	13,24
1080,687	10,24
1080,928	9,94
1081,168	6,84
1081,409	9,84
1081,649	9,44
1081,89	6,74
1082,131	6,94
1082,371	7,24
1082,612	7,34
1082,852	10,14
1083,093	8,64
1083,333	6,34
1083,573	6,74
1083,814	7,34
1084,054	12,24
1084,295	10,04
1084,535	8,34
1084,776	12,04
1085,016	9,04
1085,257	7,34
1085,497	8,54
1085,737	5,44
1085,978	9,34
1086,218	7,14
1086,458	9,04
1086,699	9,34
1086,939	10,44
1087,179	10,34
1087,42	8,44
1087,66	11,04
1087,9	9,94
1088,141	9,24
1088,381	10,54
1088,621	10,54
1088,861	5,54
1089,102	7,94
1089,342	7,44
1089,582	7,54
1089,822	8,34
1090,063	6,14
1090,303	12,04
1090,543	8,74
1090,783	6,34
1091,023	9,74
1091,263	7,34
1091,504	8,04
1091,744	6,54
1091,984	7,24
1092,224	7,44
1092,464	12,64
1092,704	8,14
1092,944	7,34
1093,184	5,34
1093,425	9,74
1093,665	9,04
1093,905	8,34
1094,145	8,64
1094,385	9,44
1094,625	5,44
1094,865	5,14
1095,105	8,44
1095,345	10,44
1095,585	5,74
1095,825	8,04
1096,065	6,24
1096,305	6,34
1096,545	7,04
1096,785	7,34
1097,025	8,54
1097,265	7,04
1097,504	6,44
1097,744	5,24
1097,984	7,34
1098,224	8,74
1098,464	7,64
1098,704	5,24
1098,944	3,94
1099,184	8,54
1099,423	5,14
1099,663	6,94
1099,903	4,44
1100,143	5,94
1100,383	4,74
1100,622	5,94
1100,862	4,24
1101,102	6,84
1101,342	12,14
1101,582	10,04
1101,821	3,84
1102,061	6,94
1102,301	8,14
1102,54	11,54
1102,78	6,34
1103,02	8,34
1103,26	4,74
1103,499	1,44
1103,739	7,04
1103,979	8,64
1104,218	4,94
1104,458	6,64
1104,697	7,94
1104,937	6,24
1105,177	5,14
1105,416	5,64
1105,656	7,94
1105,896	6,84
1106,135	6,64
1106,375	4,64
1106,614	5,44
1106,854	6,94
1107,093	7,74
1107,333	7,44
1107,572	6,54
1107,812	6,44
1108,051	3,44
1108,291	4,04
1108,53	4,74
1108,77	3,04
1109,009	1,74
1109,249	4,44
1109,488	5,14
1109,728	5,24
1109,967	6,54
1110,206	7,14
1110,446	7,74
1110,685	6,44
1110,925	5,44
1111,164	3,54
1111,403	10,04
1111,643	9,24
1111,882	7,94
1112,121	4,84
1112,361	4,54
1112,6	3,94
1112,839	5,84
1113,079	6,04
1113,318	5,64
1113,557	6,84
1113,796	7,44
1114,036	7,54
1114,275	3,44
1114,514	6,34
1114,753	5,14
1114,993	5,34
1115,232	4,34
1115,471	1,54
1115,71	5,94
1115,949	5,24
1116,188	7,64
1116,428	6,44
1116,667	6,34
1116,906	3,14
1117,145	6,94
1117,384	3,64
1117,623	4,84
1117,862	4,04
1118,101	3,54
1118,341	-0,06
1118,58	4,94
1118,819	6,64
1119,058	4,34
1119,297	5,64
1119,536	5,44
1119,775	2,84
1120,014	5,24
1120,253	6,94
1120,492	2,14
1120,731	4,54
1120,97	6,74
1121,209	7,14
1121,448	3,54
1121,687	3,94
1121,926	7,54
1122,165	9,94
1122,404	0,54
1122,642	4,04
1122,881	4,14
1123,12	2,64
1123,359	6,54
1123,598	8,94
1123,837	3,34
1124,076	3,64
1124,315	7,04
1124,553	5,44
1124,792	1,44
1125,031	3,94
1125,27	4,84
1125,509	1,54
1125,747	3,34
1125,986	1,64
1126,225	3,94
