Data from HR4C34221__5__21-29-00-021.txt Node

Date: Fri Apr 11 21:29:00 MSK 2025
User: 123
Spectrometer: HR4C3422
Trigger mode: 4
Integration Time (sec): 3,000000E-2
Scans to average: 10
Electric dark correction enabled: true
Nonlinearity correction enabled: false
Boxcar width: 0
XAxis mode: Wavelengths
Number of Pixels in Spectrum: 3648
>>>>>Begin Spectral Data<<<<<
195,326	-17,86
195,597	-17,86
195,868	-17,86
196,139	-11,36
196,409	3,34
196,68	-6,36
196,951	-1,76
197,221	-3,26
197,492	1,94
197,762	-0,36
198,033	4,24
198,304	5,94
198,574	-3,76
198,845	2,94
199,116	-1,86
199,386	0,74
199,657	-6,76
199,927	8,34
200,198	8,44
200,468	6,44
200,739	3,54
201,009	1,34
201,28	8,34
201,551	8,54
201,821	4,64
202,092	4,54
202,362	4,44
202,633	2,84
202,903	-0,06
203,174	0,54
203,444	4,74
203,714	4,24
203,985	4,84
204,255	2,64
204,526	25,94
204,796	4,54
205,067	8,94
205,337	3,54
205,607	5,74
205,878	17,74
206,148	10,14
206,419	7,54
206,689	6,54
206,959	6,94
207,23	4,14
207,5	12,14
207,77	6,04
208,041	3,44
208,311	11,44
208,581	7,24
208,852	3,74
209,122	2,14
209,392	5,64
209,663	2,44
209,933	5,24
210,203	5,54
210,473	5,84
210,744	5,44
211,014	10,04
211,284	5,04
211,554	4,14
211,825	1,54
212,095	3,04
212,365	3,94
212,635	8,94
212,905	5,64
213,176	3,14
213,446	11,74
213,716	4,84
213,986	6,64
214,256	3,24
214,526	1,64
214,797	3,04
215,067	4,64
215,337	10,24
215,607	5,24
215,877	4,04
216,147	-0,56
216,417	6,54
216,687	5,34
216,957	7,04
217,227	0,14
217,497	3,54
217,767	4,54
218,038	8,74
218,308	7,14
218,578	4,84
218,848	10,14
219,118	8,14
219,388	7,74
219,658	5,94
219,928	7,74
220,198	7,44
220,468	8,74
220,737	8,94
221,007	7,24
221,277	6,04
221,547	9,84
221,817	2,04
222,087	5,04
222,357	6,44
222,627	3,44
222,897	8,94
223,167	3,34
223,437	4,84
223,707	9,54
223,976	13,84
224,246	9,84
224,516	5,14
224,786	7,24
225,056	7,94
225,326	9,94
225,595	3,14
225,865	5,24
226,135	5,94
226,405	2,74
226,675	7,84
226,944	8,04
227,214	4,64
227,484	3,84
227,754	2,64
228,023	7,14
228,293	5,84
228,563	10,14
228,833	9,14
229,102	7,64
229,372	4,74
229,642	3,04
229,911	7,24
230,181	-0,46
230,451	4,64
230,72	5,54
230,99	9,84
231,26	10,44
231,529	4,54
231,799	8,24
232,069	9,14
232,338	9,54
232,608	11,54
232,877	7,84
233,147	5,04
233,417	6,04
233,686	10,14
233,956	2,44
234,225	4,94
234,495	3,84
234,764	7,24
235,034	5,84
235,304	2,44
235,573	24,24
235,843	7,64
236,112	9,44
236,382	7,94
236,651	9,14
236,921	6,94
237,19	2,24
237,46	4,64
237,729	7,54
237,998	7,64
238,268	9,34
238,537	10,34
238,807	7,44
239,076	-0,06
239,346	4,14
239,615	4,04
239,884	2,34
240,154	5,84
240,423	6,44
240,693	5,64
240,962	1,84
241,231	9,94
241,501	7,04
241,77	2,24
242,039	4,84
242,309	1,14
242,578	3,54
242,847	2,74
243,116	3,34
243,386	6,54
243,655	5,14
243,924	6,34
244,194	5,14
244,463	5,94
244,732	6,44
245,001	9,94
245,271	20,94
245,54	7,44
245,809	4,94
246,078	7,84
246,347	5,84
246,617	6,24
246,886	5,34
247,155	6,54
247,424	6,04
247,693	5,34
247,963	6,94
248,232	9,04
248,501	10,74
248,77	6,64
249,039	2,94
249,308	1,94
249,577	5,74
249,846	4,84
250,115	6,74
250,385	11,94
250,654	6,44
250,923	6,34
251,192	4,54
251,461	5,34
251,73	2,84
251,999	5,84
252,268	7,94
252,537	7,34
252,806	2,64
253,075	7,74
253,344	10,64
253,613	12,34
253,882	5,64
254,151	5,24
254,42	7,44
254,689	6,04
254,958	5,14
255,227	5,74
255,496	9,24
255,765	4,44
256,033	0,24
256,302	7,04
256,571	6,04
256,84	2,84
257,109	2,14
257,378	0,14
257,647	-0,96
257,916	4,64
258,184	4,64
258,453	6,74
258,722	10,04
258,991	5,64
259,26	6,34
259,529	8,84
259,797	7,84
260,066	6,84
260,335	9,44
260,604	8,94
260,873	8,24
261,141	10,84
261,41	3,64
261,679	6,54
261,948	9,84
262,216	5,34
262,485	10,24
262,754	8,44
263,022	11,34
263,291	11,04
263,56	6,74
263,829	5,04
264,097	8,04
264,366	6,04
264,635	5,64
264,903	3,94
265,172	4,94
265,44	7,54
265,709	6,34
265,978	6,74
266,246	8,34
266,515	8,14
266,784	5,74
267,052	4,24
267,321	4,44
267,589	31,04
267,858	9,74
268,126	5,14
268,395	8,94
268,663	7,64
268,932	6,74
269,201	8,14
269,469	6,34
269,738	8,74
270,006	4,94
270,275	9,04
270,543	4,24
270,811	8,44
271,08	3,74
271,348	9,64
271,617	5,94
271,885	8,34
272,154	5,84
272,422	7,94
272,691	4,14
272,959	12,64
273,227	3,14
273,496	6,84
273,764	5,84
274,033	4,44
274,301	0,34
274,569	4,74
274,838	4,34
275,106	8,64
275,374	10,24
275,643	11,24
275,911	8,74
276,179	6,44
276,448	4,04
276,716	8,84
276,984	3,34
277,252	6,64
277,521	5,04
277,789	2,54
278,057	3,54
278,325	-0,46
278,594	7,94
278,862	7,24
279,13	3,04
279,398	5,24
279,667	9,54
279,935	3,94
280,203	7,14
280,471	6,94
280,739	5,84
281,008	6,54
281,276	8,84
281,544	5,94
281,812	3,34
282,08	7,24
282,348	11,64
282,616	3,44
282,884	0,24
283,153	4,54
283,421	4,74
283,689	6,34
283,957	2,94
284,225	3,94
284,493	8,44
284,761	6,04
285,029	4,14
285,297	4,04
285,565	4,94
285,833	1,24
286,101	2,14
286,369	0,14
286,637	6,94
286,905	3,44
287,173	6,74
287,441	5,44
287,709	8,64
287,977	9,14
288,245	6,14
288,513	5,04
288,781	4,34
289,049	6,94
289,317	5,44
289,585	8,94
289,853	5,34
290,12	7,24
290,388	6,04
290,656	8,14
290,924	6,34
291,192	10,64
291,46	2,54
291,728	9,04
291,996	7,14
292,263	11,04
292,531	8,04
292,799	5,84
293,067	7,04
293,335	8,34
293,602	4,04
293,87	10,44
294,138	9,64
294,406	5,84
294,673	6,14
294,941	10,64
295,209	3,24
295,477	5,94
295,744	7,94
296,012	8,64
296,28	9,04
296,548	7,44
296,815	0,64
297,083	8,84
297,351	5,54
297,618	9,94
297,886	5,24
298,154	8,34
298,421	4,24
298,689	7,14
298,956	2,94
299,224	5,74
299,492	4,24
299,759	4,54
300,027	2,34
300,294	5,24
300,562	6,54
300,83	7,34
301,097	6,54
301,365	6,54
301,632	3,24
301,9	4,84
302,167	7,64
302,435	7,54
302,702	9,44
302,97	6,14
303,237	6,14
303,505	6,24
303,772	9,94
304,04	9,34
304,307	-0,36
304,575	9,64
304,842	7,14
305,11	8,94
305,377	5,34
305,645	7,34
305,912	4,24
306,179	7,14
306,447	8,14
306,714	4,44
306,982	4,14
307,249	8,34
307,516	6,64
307,784	4,64
308,051	2,64
308,318	13,54
308,586	7,44
308,853	5,14
309,12	3,64
309,388	6,34
309,655	6,34
309,922	2,64
310,19	3,14
310,457	11,64
310,724	6,34
310,991	4,94
311,259	8,34
311,526	7,34
311,793	8,04
312,06	3,04
312,328	5,64
312,595	3,54
312,862	6,94
313,129	5,94
313,396	8,74
313,664	8,94
313,931	6,84
314,198	5,94
314,465	6,94
314,732	7,44
314,999	7,44
315,266	11,24
315,534	7,94
315,801	0,84
316,068	5,94
316,335	8,04
316,602	5,74
316,869	8,14
317,136	6,54
317,403	12,54
317,67	9,34
317,937	12,04
318,204	11,54
318,471	10,54
318,738	5,34
319,005	8,24
319,272	0,44
319,539	3,24
319,806	9,24
320,073	6,04
320,34	5,64
320,607	6,44
320,874	12,04
321,141	7,14
321,408	13,54
321,675	6,94
321,942	5,64
322,209	5,64
322,476	2,54
322,743	9,24
323,01	8,94
323,277	8,34
323,544	9,14
323,81	8,74
324,077	5,44
324,344	4,04
324,611	4,54
324,878	6,54
325,145	3,54
325,412	8,14
325,678	3,84
325,945	6,64
326,212	4,94
326,479	11,04
326,746	10,84
327,012	5,84
327,279	4,74
327,546	9,54
327,813	11,34
328,079	11,74
328,346	1,54
328,613	9,54
328,88	10,14
329,146	10,54
329,413	9,74
329,68	7,64
329,946	7,44
330,213	8,04
330,48	2,14
330,746	5,44
331,013	7,94
331,28	7,44
331,546	6,34
331,813	5,34
332,08	7,94
332,346	9,64
332,613	8,34
332,879	10,24
333,146	10,14
333,413	5,84
333,679	8,94
333,946	9,24
334,212	8,54
334,479	8,24
334,745	5,34
335,012	8,64
335,278	7,34
335,545	10,14
335,811	7,04
336,078	13,14
336,344	4,84
336,611	4,54
336,877	5,84
337,144	9,44
337,41	8,14
337,677	7,74
337,943	11,34
338,21	7,74
338,476	9,84
338,742	14,14
339,009	9,14
339,275	9,74
339,542	5,34
339,808	10,74
340,074	6,34
340,341	7,94
340,607	11,94
340,873	11,14
341,14	7,24
341,406	8,24
341,672	9,64
341,939	6,24
342,205	8,94
342,471	14,34
342,738	9,94
343,004	12,54
343,27	7,44
343,537	11,24
343,803	8,54
344,069	4,84
344,335	5,74
344,602	9,04
344,868	6,54
345,134	11,44
345,4	12,64
345,666	9,04
345,933	10,74
346,199	11,04
346,465	6,94
346,731	11,14
346,997	6,14
347,263	8,44
347,53	9,84
347,796	6,54
348,062	13,04
348,328	10,84
348,594	7,14
348,86	6,24
349,126	7,04
349,392	11,74
349,659	13,54
349,925	8,84
350,191	12,74
350,457	9,54
350,723	7,54
350,989	9,34
351,255	11,24
351,521	11,64
351,787	12,54
352,053	12,54
352,319	8,94
352,585	12,74
352,851	7,74
353,117	13,44
353,383	14,44
353,649	10,14
353,915	9,34
354,181	10,44
354,447	4,84
354,713	14,74
354,978	13,94
355,244	13,44
355,51	7,94
355,776	15,14
356,042	14,44
356,308	17,14
356,574	11,34
356,84	11,04
357,106	12,64
357,371	8,44
357,637	14,24
357,903	9,84
358,169	9,74
358,435	9,74
358,701	9,14
358,966	7,64
359,232	9,24
359,498	11,14
359,764	13,54
360,029	6,64
360,295	10,54
360,561	8,34
360,827	10,64
361,092	14,24
361,358	14,64
361,624	10,74
361,89	8,24
362,155	14,04
362,421	15,34
362,687	16,64
362,952	9,44
363,218	16,24
363,484	14,74
363,749	9,04
364,015	13,34
364,281	12,54
364,546	10,64
364,812	12,94
365,077	14,34
365,343	14,04
365,609	12,84
365,874	14,84
366,14	13,14
366,405	15,74
366,671	18,14
366,936	15,84
367,202	12,44
367,467	17,64
367,733	13,14
367,999	14,64
368,264	10,24
368,53	12,04
368,795	12,54
369,061	11,94
369,326	13,04
369,591	14,74
369,857	12,44
370,122	13,54
370,388	12,44
370,653	14,04
370,919	11,84
371,184	12,24
371,45	14,34
371,715	16,34
371,98	18,04
372,246	14,44
372,511	13,44
372,776	16,44
373,042	13,24
373,307	10,44
373,573	8,34
373,838	12,84
374,103	12,84
374,369	14,24
374,634	12,34
374,899	14,74
375,164	14,54
375,43	14,94
375,695	15,44
375,96	14,64
376,226	16,94
376,491	19,44
376,756	16,84
377,021	18,24
377,286	15,54
377,552	15,94
377,817	13,44
378,082	17,94
378,347	15,94
378,613	17,44
378,878	20,24
379,143	21,34
379,408	13,44
379,673	14,44
379,938	17,94
380,203	15,14
380,469	17,04
380,734	21,84
380,999	11,34
381,264	13,54
381,529	17,64
381,794	11,74
382,059	16,84
382,324	16,54
382,589	18,64
382,854	20,04
383,119	19,64
383,385	19,44
383,65	13,54
383,915	15,14
384,18	16,34
384,445	12,84
384,71	18,54
384,975	15,64
385,24	14,44
385,505	13,84
385,77	17,04
386,034	20,94
386,299	17,94
386,564	17,04
386,829	18,64
387,094	21,44
387,359	15,04
387,624	14,34
387,889	18,34
388,154	17,74
388,419	17,34
388,684	14,04
388,949	14,04
389,213	16,44
389,478	11,94
389,743	18,04
390,008	15,64
390,273	22,84
390,538	17,74
390,802	18,24
391,067	19,24
391,332	16,04
391,597	16,04
391,862	19,94
392,126	23,74
392,391	22,84
392,656	13,14
392,921	19,34
393,185	16,24
393,45	18,34
393,715	20,04
393,979	19,44
394,244	14,34
394,509	17,84
394,774	20,74
395,038	19,94
395,303	17,84
395,568	19,74
395,832	17,44
396,097	20,74
396,361	17,64
396,626	17,24
396,891	18,44
397,155	19,04
397,42	23,64
397,685	18,14
397,949	20,34
398,214	20,44
398,478	18,74
398,743	22,54
399,007	20,44
399,272	21,64
399,536	20,44
399,801	21,04
400,066	16,74
400,33	23,64
400,595	24,44
400,859	17,74
401,124	17,54
401,388	22,34
401,652	17,64
401,917	29,84
402,181	20,04
402,446	23,04
402,71	20,14
402,975	20,04
403,239	21,44
403,504	21,24
403,768	22,04
404,032	26,34
404,297	21,84
404,561	24,14
404,826	25,94
405,09	24,74
405,354	22,64
405,619	23,04
405,883	26,14
406,147	26,34
406,412	25,34
406,676	29,64
406,94	23,24
407,205	25,74
407,469	28,14
407,733	29,04
407,997	28,14
408,262	30,34
408,526	26,04
408,79	24,54
409,054	28,14
409,319	28,64
409,583	30,04
409,847	28,44
410,111	31,24
410,375	36,74
410,64	34,24
410,904	33,74
411,168	30,54
411,432	34,94
411,696	31,94
411,96	37,24
412,225	36,84
412,489	40,94
412,753	42,44
413,017	42,74
413,281	48,44
413,545	48,04
413,809	49,84
414,073	52,14
414,337	47,34
414,602	47,04
414,866	51,74
415,13	53,74
415,394	60,84
415,658	56,64
415,922	63,74
416,186	67,04
416,45	66,04
416,714	72,14
416,978	74,54
417,242	77,74
417,506	78,44
417,77	83,94
418,034	82,34
418,298	91,34
418,562	97,04
418,825	101,04
419,089	104,94
419,353	111,04
419,617	115,34
419,881	119,44
420,145	123,94
420,409	127,64
420,673	138,74
420,937	144,04
421,2	151,04
421,464	167,44
421,728	169,54
421,992	171,54
422,256	182,44
422,52	187,14
422,783	204,04
423,047	217,14
423,311	225,64
423,575	237,04
423,839	248,94
424,102	252,24
424,366	270,04
424,63	289,74
424,894	303,84
425,157	320,64
425,421	330,54
425,685	345,74
425,949	360,84
426,212	387,94
426,476	394,94
426,74	413,94
427,003	439,84
427,267	460,24
427,531	478,74
427,794	515,24
428,058	535,34
428,322	541,54
428,585	579,14
428,849	597,74
429,112	637,14
429,376	667,84
429,64	686,44
429,903	720,94
430,167	746,64
430,43	794,74
430,694	830,84
430,957	842,34
431,221	891,74
431,485	921,94
431,748	957,84
432,012	1014,34
432,275	1033,84
432,539	1090,64
432,802	1139,34
433,066	1183,24
433,329	1204,84
433,593	1298,64
433,856	1308,44
434,119	1363,14
434,383	1412,44
434,646	1450,64
434,91	1509,04
435,173	1610,14
435,437	1633,34
435,7	1684,54
435,963	1746,04
436,227	1783,54
436,49	1866,64
436,753	1908,64
437,017	1944,94
437,28	2051,74
437,544	2150,84
437,807	2201,54
438,07	2220,54
438,334	2325,64
438,597	2389,14
438,86	2511,14
439,123	2609,64
439,387	2656,34
439,65	2762,54
439,913	2933,04
440,177	2920,64
440,44	3048,64
440,703	3209,34
440,966	3232,84
441,229	3367,54
441,493	3485,74
441,756	3689,54
442,019	3746,04
442,282	3800,84
442,545	3988,74
442,809	4123,44
443,072	4258,94
443,335	4531,44
443,598	4716,94
443,861	4763,54
444,124	4934,74
444,388	5211,34
444,651	5394,04
444,914	5492,54
445,177	5725,74
445,44	5827,94
445,703	6044,24
445,966	6336,44
446,229	6608,14
446,492	6765,64
446,755	7205,34
447,018	7252,44
447,281	7516,04
447,544	7735,54
447,807	8009,44
448,07	8420,44
448,333	8562,74
448,596	8873,74
448,859	9295,84
449,122	9498,94
449,385	9655,64
449,648	10145,84
449,911	10268,54
450,174	10734,34
450,437	10913,54
450,7	11081,34
450,963	11128,04
451,226	11670,74
451,489	11868,34
451,752	12285,64
452,015	12461,44
452,277	12406,14
452,54	12769,74
452,803	12927,54
453,066	13002,54
453,329	13296,94
453,592	13512,04
453,855	13315,84
454,117	13681,84
454,38	13711,64
454,643	13914,54
454,906	13751,54
455,169	13571,64
455,431	13671,14
455,694	13633,24
455,957	13618,64
456,22	14000,44
456,482	13507,84
456,745	13435,04
457,008	13739,94
457,271	13529,24
457,533	13357,64
457,796	13367,24
458,059	13108,84
458,321	12734,14
458,584	12685,64
458,847	12596,54
459,109	12074,34
459,372	12355,04
459,635	11859,94
459,897	11681,54
460,16	11584,04
460,423	11419,44
460,685	11063,04
460,948	10955,84
461,21	10803,14
461,473	10496,94
461,735	10116,94
461,998	10010,44
462,261	9750,64
462,523	9841,34
462,786	9568,64
463,048	9343,44
463,311	9188,74
463,573	9017,04
463,836	8762,74
464,098	8500,14
464,361	8269,54
464,623	8153,54
464,886	8089,24
465,148	8205,54
465,411	8083,34
465,673	8126,64
465,936	7953,84
466,198	7857,94
466,46	7690,04
466,723	7634,34
466,985	7484,64
467,248	7433,24
467,51	7354,64
467,772	7313,24
468,035	7230,84
468,297	7233,04
468,56	7082,74
468,822	7042,94
469,084	7028,34
469,347	6853,44
469,609	6857,04
469,871	6930,94
470,133	6818,24
470,396	6835,04
470,658	6662,04
470,92	6591,54
471,183	6752,04
471,445	6570,34
471,707	6537,84
471,969	6483,64
472,232	6402,14
472,494	6398,64
472,756	6390,94
473,018	6212,34
473,281	6299,14
473,543	6221,34
473,805	6076,54
474,067	6130,04
474,329	6006,94
474,591	5997,54
474,854	6014,44
475,116	5816,74
475,378	5794,14
475,64	5678,14
475,902	5538,84
476,164	5602,34
476,426	5555,74
476,688	5446,34
476,951	5339,34
477,213	5292,74
477,475	5187,54
477,737	5219,54
477,999	5157,04
478,261	5053,24
478,523	4990,34
478,785	4968,14
479,047	4934,24
479,309	4863,34
479,571	4818,84
479,833	4723,14
480,095	4682,84
480,357	4679,74
480,619	4523,04
480,881	4542,54
481,143	4464,94
481,405	4391,74
481,667	4416,84
481,929	4364,74
482,191	4315,74
482,452	4283,74
482,714	4289,74
482,976	4222,34
483,238	4228,84
483,5	4217,54
483,762	4158,74
484,024	4203,74
484,286	4149,44
484,547	4099,04
484,809	4058,84
485,071	4079,34
485,333	4053,44
485,595	4036,44
485,857	4008,14
486,118	4013,94
486,38	3996,84
486,642	3986,74
486,904	3983,74
487,165	3975,54
487,427	3977,74
487,689	3962,64
487,951	3966,54
488,212	3946,04
488,474	3924,14
488,736	3904,94
488,998	3898,34
489,259	3870,74
489,521	3864,14
489,783	3865,44
490,044	3885,54
490,306	3886,24
490,568	3855,44
490,829	3859,94
491,091	3825,44
491,353	3845,34
491,614	3842,64
491,876	3817,34
492,137	3816,94
492,399	3838,44
492,661	3856,24
492,922	3841,54
493,184	3826,54
493,445	3841,94
493,707	3844,24
493,968	3831,64
494,23	3871,34
494,491	3856,94
494,753	3831,74
495,014	3857,64
495,276	3895,14
495,537	3877,34
495,799	3897,74
496,06	3909,94
496,322	3950,84
496,583	3957,24
496,845	3963,64
497,106	3984,24
497,368	3989,74
497,629	4022,14
497,89	4067,04
498,152	4073,64
498,413	4117,94
498,675	4125,24
498,936	4145,84
499,197	4183,24
499,459	4240,84
499,72	4235,94
499,981	4290,24
500,243	4322,34
500,504	4331,74
500,765	4389,24
501,027	4425,84
501,288	4482,14
501,549	4493,24
501,811	4514,34
502,072	4572,04
502,333	4618,04
502,594	4660,34
502,856	4708,84
503,117	4739,74
503,378	4777,14
503,639	4822,84
503,901	4917,64
504,162	4912,14
504,423	4963,94
504,684	5024,64
504,945	5069,34
505,207	5130,54
505,468	5180,44
505,729	5193,84
505,99	5277,94
506,251	5306,04
506,512	5365,44
506,774	5416,74
507,035	5466,94
507,296	5528,94
507,557	5558,44
507,818	5591,14
508,079	5667,04
508,34	5710,24
508,601	5781,04
508,862	5821,34
509,123	5906,24
509,384	5916,94
509,645	5970,24
509,906	6046,14
510,167	6071,54
510,428	6160,24
510,689	6206,34
510,95	6214,54
511,211	6324,44
511,472	6335,04
511,733	6402,84
511,994	6448,74
512,255	6489,24
512,516	6540,44
512,777	6586,54
513,038	6634,44
513,299	6734,74
513,56	6790,44
513,821	6837,24
514,082	6872,94
514,343	6921,74
514,603	6966,34
514,864	6980,64
515,125	7060,24
515,386	7111,54
515,647	7169,64
515,908	7202,74
516,169	7265,34
516,429	7353,44
516,69	7373,14
516,951	7388,84
517,212	7429,74
517,473	7478,24
517,733	7530,24
517,994	7581,94
518,255	7603,64
518,516	7660,64
518,776	7687,34
519,037	7772,74
519,298	7822,74
519,559	7897,74
519,819	7925,54
520,08	7981,44
520,341	8021,84
520,601	8053,14
520,862	8123,84
521,123	8127,74
521,383	8187,24
521,644	8225,64
521,905	8235,84
522,165	8287,64
522,426	8377,94
522,686	8372,14
522,947	8450,54
523,208	8522,94
523,468	8516,14
523,729	8562,24
523,989	8617,64
524,25	8632,04
524,51	8691,94
524,771	8719,14
525,032	8764,44
525,292	8828,64
525,553	8809,54
525,813	8893,74
526,074	8952,94
526,334	8957,04
526,595	8999,74
526,855	9029,24
527,116	9079,84
527,376	9101,64
527,636	9119,14
527,897	9195,14
528,157	9203,24
528,418	9241,04
528,678	9245,64
528,939	9281,94
529,199	9338,84
529,459	9397,44
529,72	9446,24
529,98	9435,94
530,24	9434,04
530,501	9479,94
530,761	9476,24
531,022	9512,14
531,282	9494,94
531,542	9557,34
531,803	9567,64
532,063	9543,64
532,323	9571,44
532,583	9651,54
532,844	9685,84
533,104	9689,74
533,364	9723,94
533,624	9730,04
533,885	9764,64
534,145	9757,94
534,405	9760,34
534,665	9774,94
534,926	9805,84
535,186	9800,04
535,446	9838,84
535,706	9826,64
535,966	9842,24
536,227	9805,14
536,487	9855,64
536,747	9880,54
537,007	9873,54
537,267	9900,74
537,527	9970,84
537,787	9954,94
538,048	9979,04
538,308	9993,94
538,568	9974,64
538,828	9968,54
539,088	9989,14
539,348	10048,94
539,608	10036,94
539,868	10010,84
540,128	10059,84
540,388	10013,64
540,648	10080,44
540,908	10064,24
541,168	10032,74
541,428	10079,34
541,688	10022,14
541,948	10056,84
542,208	10067,94
542,468	10066,94
542,728	10067,14
542,988	10082,14
543,248	10047,84
543,508	10111,44
543,768	10076,44
544,028	10129,64
544,288	10092,84
544,548	10153,94
544,807	10111,84
545,067	10085,14
545,327	10126,24
545,587	10085,94
545,847	10107,34
546,107	10055,44
546,367	10065,54
546,626	10079,24
546,886	10108,54
547,146	10077,84
547,406	10097,24
547,666	10078,14
547,925	10094,24
548,185	10076,34
548,445	10091,54
548,705	10069,14
548,965	10096,44
549,224	10092,84
549,484	10059,14
549,744	10064,24
550,003	10071,44
550,263	10035,04
550,523	10022,24
550,783	10015,14
551,042	9957,14
551,302	9988,54
551,562	9987,24
551,821	9910,04
552,081	9974,84
552,341	10015,34
552,6	9968,54
552,86	9911,34
553,119	9909,34
553,379	9879,14
553,639	9927,04
553,898	9897,34
554,158	9849,14
554,417	9879,84
554,677	9870,84
554,936	9872,84
555,196	9822,54
555,456	9831,34
555,715	9765,04
555,975	9818,24
556,234	9801,64
556,494	9781,44
556,753	9712,14
557,013	9736,84
557,272	9721,84
557,532	9773,94
557,791	9671,04
558,051	9721,34
558,31	9646,44
558,569	9672,64
558,829	9631,74
559,088	9639,44
559,348	9632,14
559,607	9618,04
559,866	9570,74
560,126	9611,14
560,385	9580,34
560,645	9586,94
560,904	9510,64
561,163	9466,04
561,423	9451,64
561,682	9463,64
561,941	9479,14
562,201	9385,84
562,46	9447,94
562,719	9328,74
562,979	9350,44
563,238	9346,34
563,497	9335,84
563,756	9333,44
564,016	9338,54
564,275	9302,44
564,534	9285,64
564,793	9246,54
565,053	9225,54
565,312	9241,64
565,571	9225,94
565,83	9154,94
566,089	9129,94
566,349	9097,74
566,608	9104,54
566,867	9069,74
567,126	9011,34
567,385	8975,84
567,644	8965,14
567,903	8939,14
568,163	8902,24
568,422	8855,14
568,681	8838,14
568,94	8824,84
569,199	8787,24
569,458	8777,74
569,717	8740,24
569,976	8771,34
570,235	8713,74
570,494	8671,54
570,753	8683,04
571,012	8647,94
571,271	8554,64
571,53	8586,24
571,789	8610,24
572,048	8568,74
572,307	8556,04
572,566	8531,84
572,825	8453,24
573,084	8456,84
573,343	8453,94
573,602	8412,04
573,861	8352,54
574,12	8330,44
574,379	8310,54
574,638	8280,94
574,897	8250,24
575,156	8286,74
575,414	8218,54
575,673	8185,94
575,932	8139,54
576,191	8105,14
576,45	8111,24
576,709	8085,54
576,968	8023,34
577,226	8032,44
577,485	8006,14
577,744	7983,24
578,003	7980,84
578,262	7910,24
578,52	7894,64
578,779	7870,54
579,038	7821,24
579,297	7788,74
579,555	7743,34
579,814	7775,34
580,073	7713,44
580,332	7685,74
580,59	7680,64
580,849	7636,94
581,108	7644,74
581,366	7571,14
581,625	7572,84
581,884	7529,94
582,142	7512,64
582,401	7491,24
582,66	7481,94
582,918	7416,84
583,177	7404,74
583,436	7333,54
583,694	7361,24
583,953	7335,54
584,211	7291,34
584,47	7316,64
584,728	7261,14
584,987	7220,24
585,246	7211,34
585,504	7164,04
585,763	7139,94
586,021	7152,34
586,28	7127,84
586,538	7078,44
586,797	7072,84
587,055	6992,24
587,314	7027,84
587,572	6962,84
587,831	6950,34
588,089	6913,14
588,348	6930,74
588,606	6869,84
588,864	6824,44
589,123	6834,54
589,381	6805,34
589,64	6792,14
589,898	6794,34
590,157	6760,64
590,415	6732,14
590,673	6727,14
590,932	6691,14
591,19	6648,04
591,448	6678,64
591,707	6589,24
591,965	6578,34
592,223	6565,14
592,482	6578,04
592,74	6525,94
592,998	6476,24
593,257	6511,64
593,515	6470,64
593,773	6455,14
594,031	6409,64
594,29	6394,44
594,548	6376,74
594,806	6361,24
595,064	6380,34
595,323	6305,64
595,581	6267,64
595,839	6293,64
596,097	6286,64
596,355	6242,84
596,613	6253,24
596,872	6200,74
597,13	6185,04
597,388	6173,04
597,646	6164,74
597,904	6099,54
598,162	6101,14
598,42	6111,64
598,679	6074,74
598,937	6039,14
599,195	6035,44
599,453	6030,54
599,711	5999,54
599,969	5984,44
600,227	5972,14
600,485	5928,94
600,743	5923,44
601,001	5886,24
601,259	5869,64
601,517	5862,84
601,775	5831,44
602,033	5818,74
602,291	5807,04
602,549	5749,84
602,807	5779,04
603,065	5757,14
603,323	5737,54
603,581	5706,44
603,839	5714,14
604,097	5694,44
604,355	5656,34
604,613	5651,44
604,871	5612,34
605,128	5632,14
605,386	5584,84
605,644	5576,54
605,902	5570,84
606,16	5544,34
606,418	5521,94
606,676	5476,04
606,933	5463,14
607,191	5462,34
607,449	5453,04
607,707	5435,44
607,965	5407,44
608,223	5369,34
608,48	5332,24
608,738	5349,24
608,996	5342,24
609,254	5313,24
609,511	5309,74
609,769	5288,74
610,027	5268,44
610,285	5220,34
610,542	5240,14
610,8	5197,54
611,058	5206,74
611,315	5165,94
611,573	5148,44
611,831	5118,64
612,088	5118,14
612,346	5109,34
612,604	5097,24
612,861	5070,34
613,119	5062,14
613,376	5053,94
613,634	5027,34
613,892	5001,44
614,149	4985,14
614,407	4982,24
614,664	4919,64
614,922	4951,44
615,18	4921,74
615,437	4925,04
615,695	4891,84
615,952	4890,24
616,21	4874,74
616,467	4855,34
616,725	4841,54
616,982	4825,64
617,24	4823,14
617,497	4808,34
617,755	4817,54
618,012	4752,94
618,27	4748,64
618,527	4718,54
618,784	4692,34
619,042	4670,54
619,299	4665,54
619,557	4658,34
619,814	4643,04
620,071	4618,64
620,329	4599,84
620,586	4546,54
620,844	4565,34
621,101	4561,64
621,358	4534,14
621,616	4538,04
621,873	4513,54
622,13	4471,44
622,388	4444,24
622,645	4432,34
622,902	4412,04
623,159	4392,04
623,417	4400,14
623,674	4338,44
623,931	4351,14
624,188	4325,34
624,446	4310,24
624,703	4297,14
624,96	4298,54
625,217	4221,74
625,475	4233,94
625,732	4215,34
625,989	4182,04
626,246	4148,94
626,503	4135,04
626,761	4150,64
627,018	4118,04
627,275	4104,44
627,532	4059,54
627,789	4058,74
628,046	4038,14
628,303	4012,64
628,56	3991,04
628,818	3945,74
629,075	3958,54
629,332	3919,24
629,589	3917,94
629,846	3924,94
630,103	3880,74
630,36	3864,24
630,617	3844,74
630,874	3831,64
631,131	3831,94
631,388	3781,34
631,645	3763,44
631,902	3751,54
632,159	3723,34
632,416	3702,44
632,673	3700,44
632,93	3670,04
633,187	3644,44
633,444	3621,84
633,701	3614,34
633,958	3610,04
634,215	3568,84
634,471	3553,34
634,728	3513,84
634,985	3515,64
635,242	3511,44
635,499	3479,64
635,756	3472,74
636,013	3433,44
636,27	3402,94
636,526	3402,24
636,783	3377,94
637,04	3368,24
637,297	3366,74
637,554	3325,44
637,81	3295,74
638,067	3257,24
638,324	3275,54
638,581	3239,94
638,838	3221,84
639,094	3209,64
639,351	3178,24
639,608	3190,24
639,864	3164,74
640,121	3135,84
640,378	3101,84
640,635	3103,74
640,891	3063,94
641,148	3069,84
641,405	3044,64
641,661	3029,54
641,918	3006,74
642,175	2982,94
642,431	2963,34
642,688	2945,84
642,944	2935,04
643,201	2922,54
643,458	2911,94
643,714	2896,14
643,971	2860,64
644,227	2828,64
644,484	2849,64
644,741	2810,14
644,997	2804,04
645,254	2758,14
645,51	2766,14
645,767	2737,74
646,023	2729,34
646,28	2715,64
646,536	2708,94
646,793	2685,04
647,049	2656,44
647,306	2640,64
647,562	2620,64
647,819	2615,94
648,075	2588,64
648,331	2577,14
648,588	2570,34
648,844	2549,74
649,101	2543,54
649,357	2521,34
649,613	2497,24
649,87	2494,34
650,126	2475,44
650,383	2482,54
650,639	2458,24
650,895	2433,14
651,152	2421,64
651,408	2387,04
651,664	2391,24
651,921	2372,74
652,177	2350,04
652,433	2335,34
652,689	2330,74
652,946	2285,64
653,202	2292,94
653,458	2284,64
653,715	2277,24
653,971	2258,64
654,227	2257,24
654,483	2242,44
654,739	2207,74
654,996	2197,94
655,252	2192,14
655,508	2171,94
655,764	2180,64
656,02	2163,94
656,277	2124,74
656,533	2120,24
656,789	2120,44
657,045	2087,54
657,301	2079,14
657,557	2068,04
657,813	2050,94
658,07	2046,84
658,326	2031,04
658,582	2016,64
658,838	2019,14
659,094	2007,74
659,35	1989,74
659,606	1994,64
659,862	1975,44
660,118	1955,84
660,374	1939,74
660,63	1936,44
660,886	1925,64
661,142	1912,24
661,398	1908,34
661,654	1888,24
661,91	1877,04
662,166	1866,34
662,422	1866,34
662,678	1848,04
662,934	1844,54
663,19	1825,64
663,446	1831,34
663,702	1832,34
663,957	1797,74
664,213	1790,64
664,469	1789,54
664,725	1791,54
664,981	1769,14
665,237	1761,14
665,493	1750,94
665,749	1752,14
666,004	1732,14
666,26	1722,54
666,516	1710,24
666,772	1715,24
667,028	1703,14
667,283	1684,64
667,539	1679,14
667,795	1672,34
668,051	1660,34
668,307	1664,24
668,562	1654,64
668,818	1638,54
669,074	1633,24
669,329	1620,24
669,585	1614,04
669,841	1616,34
670,097	1587,24
670,352	1589,84
670,608	1592,04
670,864	1573,84
671,119	1562,24
671,375	1569,24
671,631	1562,04
671,886	1552,54
672,142	1543,04
672,397	1542,04
672,653	1528,24
672,909	1523,14
673,164	1518,74
673,42	1512,54
673,675	1506,74
673,931	1498,74
674,186	1482,54
674,442	1480,34
674,698	1479,44
674,953	1473,14
675,209	1465,74
675,464	1456,14
675,72	1454,54
675,975	1444,14
676,231	1439,44
676,486	1431,84
676,742	1424,24
676,997	1435,94
677,252	1417,64
677,508	1416,74
677,763	1420,64
678,019	1400,04
678,274	1397,74
678,53	1395,54
678,785	1380,74
679,04	1389,74
679,296	1368,64
679,551	1367,54
679,806	1360,44
680,062	1355,74
680,317	1344,34
680,572	1344,14
680,828	1338,64
681,083	1328,84
681,338	1333,34
681,594	1326,04
681,849	1313,84
682,104	1310,14
682,36	1309,74
682,615	1306,64
682,87	1312,84
683,125	1300,84
683,381	1302,64
683,636	1282,34
683,891	1267,44
684,146	1262,34
684,401	1275,04
684,657	1262,34
684,912	1262,34
685,167	1248,14
685,422	1244,34
685,677	1238,84
685,932	1234,74
686,188	1233,64
686,443	1233,14
686,698	1225,44
686,953	1224,34
687,208	1216,94
687,463	1210,64
687,718	1216,44
687,973	1198,74
688,228	1191,54
688,483	1192,54
688,739	1183,24
688,994	1174,14
689,249	1161,64
689,504	1173,74
689,759	1158,94
690,014	1156,14
690,269	1152,94
690,524	1147,94
690,779	1145,04
691,034	1146,74
691,289	1138,24
691,544	1128,84
691,798	1125,64
692,053	1124,54
692,308	1123,74
692,563	1106,34
692,818	1103,24
693,073	1094,14
693,328	1102,14
693,583	1090,84
693,838	1086,84
694,093	1080,04
694,347	1078,24
694,602	1070,54
694,857	1061,84
695,112	1058,24
695,367	1051,24
695,622	1050,94
695,876	1031,74
696,131	1026,24
696,386	1032,44
696,641	1018,84
696,896	1018,84
697,15	1011,34
697,405	1010,24
697,66	1009,94
697,915	1002,54
698,169	991,24
698,424	999,84
698,679	996,34
698,933	980,74
699,188	976,34
699,443	967,24
699,698	960,44
699,952	945,64
700,207	953,24
700,461	959,64
700,716	947,94
700,971	927,04
701,225	937,84
701,48	920,64
701,735	918,14
701,989	912,94
702,244	896,24
702,498	910,44
702,753	896,94
703,007	892,74
703,262	887,94
703,517	881,14
703,771	879,04
704,026	882,54
704,28	870,34
704,535	859,94
704,789	850,44
705,044	846,84
705,298	846,74
705,553	838,94
705,807	838,34
706,062	829,54
706,316	826,64
706,57	817,44
706,825	808,34
707,079	805,54
707,334	797,34
707,588	799,94
707,842	788,24
708,097	780,54
708,351	779,04
708,606	778,44
708,86	767,84
709,114	766,84
709,369	763,24
709,623	763,54
709,877	749,34
710,132	751,84
710,386	746,34
710,64	744,04
710,895	739,34
711,149	731,24
711,403	727,64
711,657	713,64
711,912	710,04
712,166	711,64
712,42	710,94
712,674	700,84
712,928	695,74
713,183	684,34
713,437	686,24
713,691	683,04
713,945	677,54
714,199	658,54
714,454	664,44
714,708	653,24
714,962	653,44
715,216	648,34
715,47	644,04
715,724	641,44
715,978	628,84
716,233	631,74
716,487	630,44
716,741	624,74
716,995	616,44
717,249	604,84
717,503	602,74
717,757	595,44
718,011	601,94
718,265	599,64
718,519	591,74
718,773	582,54
719,027	576,34
719,281	579,04
719,535	577,94
719,789	565,64
720,043	567,44
720,297	565,44
720,551	548,04
720,805	541,74
721,059	547,84
721,313	538,34
721,567	532,54
721,821	528,34
722,074	519,74
722,328	518,74
722,582	513,64
722,836	514,94
723,09	505,14
723,344	504,94
723,598	505,24
723,851	493,04
724,105	495,24
724,359	483,44
724,613	484,64
724,867	480,34
725,121	475,34
725,374	481,74
725,628	461,54
725,882	461,64
726,136	471,94
726,389	464,54
726,643	455,64
726,897	454,44
727,151	447,94
727,404	442,24
727,658	443,34
727,912	439,24
728,165	440,94
728,419	429,84
728,673	420,34
728,926	421,84
729,18	418,44
729,434	417,74
729,687	417,14
729,941	406,14
730,195	401,64
730,448	398,44
730,702	389,94
730,955	392,24
731,209	393,24
731,462	392,34
731,716	382,94
731,97	378,64
732,223	381,14
732,477	385,54
732,73	373,84
732,984	371,84
733,237	369,34
733,491	367,64
733,744	364,94
733,998	362,74
734,251	355,54
734,505	356,24
734,758	350,64
735,012	341,44
735,265	342,54
735,518	333,94
735,772	337,24
736,025	334,04
736,279	336,54
736,532	332,24
736,785	327,04
737,039	325,54
737,292	320,54
737,546	315,74
737,799	310,44
738,052	313,54
738,306	308,04
738,559	306,94
738,812	307,64
739,066	304,34
739,319	296,14
739,572	295,74
739,825	290,34
740,079	291,74
740,332	294,24
740,585	291,04
740,838	283,44
741,092	270,14
741,345	275,14
741,598	273,84
741,851	271,44
742,104	272,74
742,358	268,44
742,611	259,74
742,864	259,54
743,117	264,04
743,37	262,64
743,623	260,44
743,877	251,04
744,13	247,94
744,383	254,24
744,636	248,04
744,889	245,44
745,142	239,04
745,395	243,34
745,648	245,74
745,901	242,64
746,154	238,04
746,408	241,94
746,661	232,94
746,914	230,44
747,167	225,14
747,42	226,84
747,673	225,44
747,926	222,04
748,179	220,54
748,432	216,34
748,685	216,04
748,938	219,04
749,19	213,24
749,443	210,74
749,696	206,84
749,949	210,84
750,202	209,44
750,455	199,14
750,708	201,94
750,961	196,64
751,214	214,34
751,467	196,24
751,719	190,94
751,972	188,74
752,225	195,24
752,478	186,34
752,731	189,54
752,984	191,14
753,236	184,64
753,489	181,64
753,742	175,64
753,995	178,24
754,248	181,94
754,5	176,64
754,753	172,04
755,006	173,84
755,259	168,74
755,511	172,74
755,764	163,54
756,017	161,04
756,269	164,34
756,522	157,94
756,775	164,24
757,027	155,84
757,28	157,04
757,533	153,04
757,785	152,04
758,038	152,54
758,291	146,94
758,543	148,04
758,796	150,44
759,049	148,74
759,301	145,54
759,554	147,94
759,806	144,24
760,059	144,34
760,311	143,14
760,564	139,54
760,817	140,04
761,069	138,04
761,322	132,54
761,574	128,24
761,827	130,94
762,079	131,54
762,332	134,54
762,584	129,74
762,837	128,44
763,089	128,54
763,341	131,54
763,594	129,74
763,846	128,04
764,099	124,44
764,351	123,54
764,604	118,84
764,856	120,24
765,108	116,54
765,361	118,34
765,613	118,94
765,865	114,34
766,118	111,94
766,37	120,14
766,623	108,24
766,875	105,64
767,127	105,64
767,379	106,54
767,632	104,64
767,884	105,74
768,136	104,04
768,389	100,84
768,641	102,44
768,893	101,84
769,145	97,44
769,398	100,24
769,65	101,84
769,902	99,74
770,154	96,84
770,406	92,44
770,659	91,24
770,911	96,14
771,163	98,74
771,415	92,64
771,667	88,14
771,919	91,74
772,172	96,24
772,424	88,64
772,676	91,14
772,928	92,64
773,18	85,54
773,432	85,14
773,684	84,64
773,936	92,14
774,188	82,94
774,44	87,24
774,693	88,24
774,945	83,84
775,197	81,74
775,449	83,34
775,701	79,84
775,953	79,54
776,205	79,14
776,457	79,94
776,709	79,74
776,961	76,34
777,213	77,64
777,464	79,94
777,716	71,74
777,968	69,44
778,22	70,04
778,472	70,74
778,724	68,54
778,976	71,24
779,228	72,84
779,48	70,54
779,732	71,44
779,984	71,54
780,235	66,84
780,487	63,54
780,739	67,74
780,991	62,74
781,243	61,44
781,494	64,84
781,746	64,74
781,998	63,44
782,25	58,44
782,502	63,94
782,753	65,74
783,005	62,34
783,257	59,64
783,509	61,44
783,76	58,34
784,012	60,74
784,264	59,64
784,515	57,54
784,767	60,94
785,019	59,74
785,271	59,54
785,522	56,54
785,774	53,04
786,026	55,54
786,277	55,04
786,529	52,34
786,78	56,94
787,032	51,64
787,284	49,94
787,535	53,04
787,787	51,94
788,038	50,94
788,29	48,34
788,541	55,34
788,793	51,14
789,045	49,04
789,296	51,74
789,548	48,54
789,799	49,34
790,051	45,84
790,302	49,34
790,554	47,84
790,805	45,24
791,057	49,74
791,308	44,54
791,559	47,24
791,811	44,24
792,062	48,84
792,314	41,94
792,565	43,54
792,817	45,74
793,068	41,44
793,319	39,94
793,571	40,94
793,822	43,94
794,073	43,84
794,325	37,94
794,576	46,14
794,827	42,04
795,079	37,74
795,33	37,84
795,581	41,54
795,833	37,24
796,084	36,04
796,335	37,14
796,587	38,24
796,838	36,54
797,089	38,04
797,34	34,34
797,592	36,34
797,843	36,84
798,094	33,44
798,345	36,44
798,596	36,84
798,848	36,24
799,099	34,14
799,35	36,34
799,601	34,24
799,852	34,54
800,103	33,94
800,355	35,74
800,606	42,94
800,857	35,44
801,108	31,14
801,359	33,14
801,61	34,54
801,861	30,94
802,112	33,04
802,363	30,24
802,614	29,64
802,865	29,04
803,116	25,64
803,367	25,44
803,618	28,44
803,869	31,14
804,12	29,64
804,371	28,64
804,622	31,84
804,873	28,04
805,124	28,94
805,375	31,34
805,626	28,54
805,877	30,44
806,128	28,24
806,379	24,84
806,63	22,44
806,881	23,44
807,132	24,24
807,383	24,54
807,634	25,84
807,884	27,74
808,135	25,34
808,386	20,24
808,637	25,84
808,888	27,34
809,139	25,84
809,389	22,24
809,64	26,14
809,891	23,94
810,142	23,64
810,393	22,44
810,643	27,14
810,894	23,94
811,145	24,44
811,396	25,04
811,646	20,94
811,897	21,34
812,148	24,54
812,398	26,84
812,649	26,94
812,9	25,94
813,151	22,94
813,401	19,94
813,652	34,24
813,902	26,24
814,153	20,54
814,404	27,64
814,654	19,44
814,905	25,44
815,156	21,44
815,406	22,64
815,657	22,34
815,907	22,44
816,158	21,94
816,408	21,04
816,659	24,64
816,91	19,74
817,16	19,74
817,411	20,64
817,661	18,94
817,912	18,54
818,162	16,44
818,413	17,44
818,663	16,44
818,914	19,64
819,164	18,44
819,414	18,64
819,665	23,14
819,915	23,94
820,166	21,14
820,416	17,04
820,667	20,24
820,917	17,84
821,167	18,74
821,418	16,54
821,668	17,74
821,918	18,24
822,169	17,34
822,419	15,54
822,67	15,34
822,92	16,84
823,17	16,44
823,42	21,44
823,671	23,34
823,921	14,54
824,171	16,34
824,422	15,34
824,672	18,84
824,922	17,34
825,172	15,84
825,423	15,04
825,673	17,64
825,923	13,44
826,173	19,24
826,423	13,94
826,674	17,04
826,924	15,84
827,174	14,94
827,424	17,04
827,674	17,04
827,924	16,94
828,175	16,14
828,425	17,44
828,675	13,14
828,925	12,54
829,175	15,84
829,425	12,04
829,675	10,44
829,925	14,14
830,175	12,84
830,425	11,74
830,675	15,44
830,925	15,84
831,175	17,64
831,425	15,34
831,676	13,54
831,926	13,44
832,175	10,84
832,425	15,14
832,675	16,04
832,925	16,24
833,175	13,34
833,425	15,94
833,675	14,14
833,925	15,74
834,175	15,34
834,425	18,74
834,675	16,04
834,925	10,24
835,175	15,94
835,425	11,44
835,674	10,64
835,924	13,64
836,174	11,84
836,424	10,24
836,674	9,84
836,924	13,34
837,173	10,74
837,423	16,44
837,673	16,34
837,923	9,24
838,173	9,04
838,422	10,24
838,672	15,34
838,922	12,94
839,172	9,24
839,421	13,64
839,671	13,74
839,921	8,44
840,17	9,54
840,42	14,74
840,67	14,74
840,919	14,64
841,169	18,64
841,419	14,44
841,668	10,64
841,918	9,44
842,168	14,14
842,417	11,14
842,667	14,04
842,916	16,14
843,166	11,94
843,416	12,84
843,665	12,14
843,915	11,44
844,164	13,94
844,414	14,24
844,663	12,24
844,913	11,24
845,162	13,44
845,412	11,04
845,662	9,44
845,911	10,24
846,16	11,44
846,41	11,24
846,659	11,34
846,909	15,44
847,158	8,74
847,408	9,74
847,657	7,14
847,907	10,54
848,156	12,34
848,405	11,54
848,655	9,64
848,904	11,44
849,154	12,44
849,403	15,44
849,652	13,14
849,902	12,04
850,151	11,34
850,4	6,14
850,65	9,94
850,899	9,04
851,148	9,84
851,398	8,94
851,647	19,74
851,896	13,04
852,145	13,34
852,395	7,04
852,644	10,74
852,893	11,34
853,142	12,04
853,392	7,14
853,641	14,44
853,89	7,74
854,139	14,04
854,388	12,24
854,637	14,44
854,887	9,44
855,136	12,04
855,385	11,74
855,634	8,94
855,883	14,94
856,132	12,54
856,381	8,94
856,631	13,94
856,88	14,54
857,129	12,14
857,378	10,14
857,627	12,94
857,876	10,94
858,125	10,14
858,374	9,34
858,623	7,94
858,872	10,44
859,121	14,04
859,37	10,64
859,619	14,44
859,868	12,54
860,117	9,44
860,366	11,04
860,615	9,24
860,864	11,74
861,113	10,94
861,362	7,04
861,611	9,34
861,86	9,64
862,108	9,54
862,357	12,74
862,606	9,64
862,855	7,74
863,104	10,64
863,353	5,54
863,602	12,24
863,851	26,84
864,099	9,14
864,348	5,84
864,597	9,64
864,846	9,14
865,095	14,84
865,343	12,54
865,592	10,64
865,841	10,54
866,09	15,34
866,338	10,04
866,587	8,84
866,836	9,74
867,085	8,74
867,333	8,84
867,582	8,74
867,831	5,74
868,079	6,84
868,328	9,54
868,577	12,34
868,825	9,04
869,074	12,44
869,323	9,14
869,571	11,94
869,82	9,54
870,068	13,94
870,317	13,14
870,566	7,94
870,814	7,14
871,063	6,54
871,311	11,44
871,56	10,74
871,808	9,04
872,057	10,24
872,306	7,24
872,554	8,24
872,803	9,44
873,051	11,24
873,3	13,14
873,548	8,74
873,797	8,94
874,045	9,64
874,293	10,34
874,542	10,84
874,79	6,64
875,039	7,94
875,287	9,44
875,536	4,44
875,784	5,54
876,032	12,04
876,281	7,24
876,529	13,14
876,777	12,54
877,026	10,44
877,274	11,44
877,523	10,24
877,771	11,84
878,019	8,54
878,267	9,84
878,516	12,84
878,764	10,74
879,012	10,74
879,261	9,74
879,509	11,94
879,757	9,74
880,005	11,94
880,254	10,44
880,502	10,34
880,75	10,34
880,998	12,84
881,246	10,24
881,495	8,44
881,743	11,24
881,991	9,24
882,239	8,64
882,487	10,94
882,735	10,14
882,984	14,54
883,232	15,54
883,48	12,64
883,728	12,54
883,976	11,24
884,224	10,54
884,472	12,14
884,72	8,54
884,968	15,24
885,216	16,14
885,464	10,64
885,712	10,04
885,96	8,04
886,208	8,14
886,457	11,14
886,704	10,54
886,952	11,94
887,2	13,24
887,448	8,74
887,696	8,54
887,944	11,04
888,192	6,64
888,44	7,34
888,688	10,04
888,936	11,04
889,184	10,34
889,432	6,64
889,68	10,04
889,928	7,34
890,175	12,04
890,423	11,64
890,671	8,84
890,919	13,54
891,167	11,54
891,415	11,44
891,663	6,04
891,91	5,44
892,158	11,44
892,406	11,54
892,654	7,64
892,901	10,04
893,149	9,74
893,397	11,44
893,645	4,34
893,892	11,64
894,14	11,44
894,388	10,04
894,636	9,04
894,883	4,24
895,131	8,64
895,379	7,44
895,626	8,84
895,874	6,34
896,122	9,94
896,369	13,54
896,617	7,94
896,864	10,04
897,112	8,84
897,36	9,94
897,607	9,64
897,855	5,64
898,102	10,44
898,35	9,64
898,598	8,54
898,845	12,54
899,093	8,24
899,34	12,04
899,588	7,84
899,835	11,04
900,083	11,24
900,33	12,14
900,578	10,54
900,825	12,04
901,073	12,04
901,32	8,34
901,568	10,64
901,815	12,74
902,062	10,44
902,31	14,54
902,557	9,84
902,805	23,04
903,052	8,94
903,299	9,64
903,547	11,54
903,794	9,64
904,042	7,94
904,289	9,54
904,536	14,54
904,784	5,54
905,031	7,54
905,278	8,04
905,525	8,24
905,773	7,54
906,02	7,94
906,267	8,04
906,515	5,34
906,762	8,54
907,009	7,64
907,256	8,34
907,504	8,84
907,751	7,54
907,998	10,04
908,245	9,14
908,492	10,34
908,74	10,24
908,987	11,24
909,234	7,94
909,481	6,44
909,728	4,44
909,975	4,14
910,222	6,74
910,47	6,34
910,717	4,34
910,964	9,54
911,211	9,64
911,458	7,44
911,705	14,14
911,952	8,84
912,199	7,54
912,446	2,54
912,693	9,24
912,94	10,44
913,187	9,44
913,434	8,14
913,681	7,04
913,928	4,74
914,175	6,74
914,422	6,14
914,669	11,24
914,916	9,94
915,163	5,14
915,41	6,04
915,657	10,04
915,904	10,64
916,151	14,14
916,398	12,54
916,644	11,34
916,891	9,14
917,138	8,14
917,385	12,84
917,632	10,24
917,879	8,14
918,126	11,04
918,372	8,84
918,619	12,14
918,866	7,34
919,113	8,44
919,36	3,54
919,606	8,84
919,853	9,54
920,1	10,44
920,347	6,14
920,593	6,04
920,84	8,24
921,087	8,24
921,334	5,34
921,58	10,14
921,827	12,44
922,074	9,14
922,32	9,54
922,567	5,94
922,814	4,84
923,06	9,44
923,307	5,34
923,554	12,64
923,8	8,74
924,047	6,44
924,293	9,14
924,54	7,24
924,787	5,34
925,033	8,44
925,28	5,94
925,526	9,94
925,773	10,34
926,019	10,44
926,266	4,14
926,512	2,44
926,759	3,44
927,005	12,14
927,252	8,94
927,498	7,24
927,745	3,04
927,991	7,64
928,238	5,54
928,484	11,84
928,731	7,44
928,977	8,44
929,223	9,54
929,47	5,94
929,716	1,34
929,963	5,54
930,209	8,04
930,455	10,84
930,702	4,74
930,948	5,64
931,194	5,54
931,441	3,34
931,687	1,54
931,933	9,34
932,18	4,54
932,426	7,94
932,672	8,54
932,919	10,54
933,165	6,04
933,411	9,74
933,657	8,84
933,904	7,04
934,15	8,44
934,396	7,54
934,642	4,14
934,889	7,84
935,135	5,64
935,381	9,84
935,627	5,94
935,873	5,64
936,119	5,44
936,366	9,64
936,612	7,64
936,858	5,94
937,104	6,34
937,35	7,14
937,596	7,94
937,842	5,74
938,088	3,34
938,334	8,04
938,58	6,94
938,827	11,84
939,073	5,14
939,319	5,74
939,565	8,34
939,811	8,34
940,057	5,04
940,303	10,54
940,549	3,64
940,795	3,14
941,041	4,54
941,287	9,14
941,533	12,84
941,778	8,74
942,024	-1,66
942,27	3,54
942,516	4,24
942,762	7,84
943,008	6,94
943,254	9,34
943,5	8,74
943,746	4,64
943,992	7,74
944,237	4,14
944,483	4,64
944,729	8,04
944,975	8,84
945,221	12,24
945,467	9,04
945,712	10,74
945,958	6,94
946,204	7,14
946,45	6,34
946,695	3,54
946,941	8,04
947,187	9,54
947,433	3,54
947,678	4,84
947,924	4,34
948,17	1,14
948,415	7,14
948,661	12,14
948,907	4,54
949,153	9,24
949,398	5,54
949,644	9,04
949,889	6,54
950,135	7,94
950,381	6,44
950,626	6,24
950,872	7,44
951,118	6,54
951,363	7,44
951,609	4,44
951,854	4,24
952,1	3,64
952,345	1,64
952,591	2,64
952,836	4,94
953,082	4,34
953,327	5,34
953,573	7,04
953,818	7,04
954,064	6,44
954,309	6,04
954,555	2,24
954,8	1,54
955,046	0,14
955,291	4,54
955,537	7,04
955,782	2,44
956,027	6,84
956,273	1,44
956,518	5,74
956,764	5,44
957,009	6,34
957,254	4,14
957,5	6,64
957,745	6,04
957,99	4,24
958,236	-0,06
958,481	6,54
958,726	9,44
958,972	7,94
959,217	4,14
959,462	6,24
959,707	7,04
959,953	9,04
960,198	6,54
960,443	3,44
960,688	6,84
960,934	8,64
961,179	3,84
961,424	2,04
961,669	4,74
961,914	3,44
962,16	1,84
962,405	11,14
962,65	1,04
962,895	6,24
963,14	7,34
963,385	3,74
963,63	8,24
963,876	6,94
964,121	4,64
964,366	1,34
964,611	8,04
964,856	4,84
965,101	1,84
965,346	5,54
965,591	3,44
965,836	3,84
966,081	2,94
966,326	3,84
966,571	5,64
966,816	4,04
967,061	1,04
967,306	7,14
967,551	2,64
967,796	2,94
968,041	4,54
968,286	5,34
968,531	4,94
968,776	2,24
969,021	-2,36
969,266	5,34
969,511	9,14
969,755	1,84
970	2,54
970,245	3,34
970,49	4,74
970,735	9,04
970,98	3,44
971,225	7,04
971,469	4,44
971,714	2,24
971,959	0,04
972,204	-2,46
972,449	4,74
972,693	3,74
972,938	5,44
973,183	5,44
973,428	6,74
973,672	2,24
973,917	4,84
974,162	6,94
974,407	7,54
974,651	2,44
974,896	0,54
975,141	3,04
975,385	3,94
975,63	5,24
975,875	2,24
976,119	21,54
976,364	2,64
976,608	4,74
976,853	1,24
977,098	8,54
977,342	4,14
977,587	-0,16
977,831	5,74
978,076	3,84
978,321	2,84
978,565	2,34
978,81	0,24
979,054	5,54
979,299	-0,66
979,543	7,64
979,788	3,24
980,032	5,54
980,277	5,84
980,521	3,34
980,766	1,34
981,01	4,34
981,255	1,44
981,499	4,54
981,743	2,34
981,988	0,44
982,232	4,44
982,477	5,94
982,721	3,04
982,965	2,34
983,21	5,04
983,454	3,34
983,699	0,84
983,943	3,84
984,187	7,64
984,432	2,84
984,676	6,14
984,92	9,74
985,165	2,04
985,409	0,94
985,653	1,64
985,897	4,24
986,142	2,64
986,386	5,34
986,63	5,54
986,874	-0,56
987,119	3,14
987,363	-0,06
987,607	2,34
987,851	3,54
988,095	9,54
988,34	2,94
988,584	1,84
988,828	3,64
989,072	2,94
989,316	6,74
989,56	0,74
989,804	0,44
990,049	1,14
990,293	-0,46
990,537	4,14
990,781	0,54
991,025	1,34
991,269	2,14
991,513	-1,36
991,757	5,64
992,001	0,74
992,245	3,64
992,489	4,04
992,733	3,84
992,977	2,74
993,221	1,14
993,465	-1,06
993,709	1,44
993,953	3,14
994,197	-0,26
994,441	3,64
994,685	-0,76
994,929	4,74
995,173	3,24
995,417	-1,06
995,661	2,54
995,904	5,74
996,148	6,74
996,392	1,94
996,636	-3,36
996,88	0,54
997,124	1,24
997,368	0,54
997,611	4,64
997,855	-0,06
998,099	5,64
998,343	0,64
998,587	3,94
998,83	1,04
999,074	3,54
999,318	2,94
999,562	2,34
999,805	5,04
1000,049	4,44
1000,293	1,94
1000,537	5,14
1000,78	4,04
1001,024	5,24
1001,268	3,44
1001,511	3,14
1001,755	-2,66
1001,999	1,04
1002,242	-0,26
1002,486	4,94
1002,73	-0,36
1002,973	1,64
1003,217	7,54
1003,46	3,34
1003,704	0,94
1003,948	1,44
1004,191	5,54
1004,435	4,64
1004,678	5,24
1004,922	2,54
1005,165	1,54
1005,409	6,74
1005,652	2,24
1005,896	0,94
1006,139	2,64
1006,383	2,44
1006,626	-1,56
1006,87	0,64
1007,113	-1,76
1007,357	4,04
1007,6	3,34
1007,844	1,54
1008,087	4,24
1008,33	-1,26
1008,574	5,44
1008,817	3,54
1009,061	-2,86
1009,304	-2,36
1009,547	5,24
1009,791	6,04
1010,034	4,94
1010,277	7,04
1010,521	2,64
1010,764	3,04
1011,007	1,64
1011,251	6,14
1011,494	-0,86
1011,737	3,74
1011,98	-2,06
1012,224	6,24
1012,467	-1,86
1012,71	3,74
1012,953	0,24
1013,197	6,34
1013,44	3,64
1013,683	2,04
1013,926	0,34
1014,169	3,44
1014,413	2,44
1014,656	1,24
1014,899	-5,46
1015,142	1,34
1015,385	0,94
1015,628	5,64
1015,871	-1,56
1016,115	0,74
1016,358	9,54
1016,601	4,94
1016,844	1,94
1017,087	1,54
1017,33	4,64
1017,573	0,44
1017,816	-1,96
1018,059	5,64
1018,302	1,54
1018,545	0,14
1018,788	2,74
1019,031	6,64
1019,274	2,04
1019,517	2,64
1019,76	2,14
1020,003	0,74
1020,246	0,04
1020,489	1,44
1020,732	3,74
1020,975	3,34
1021,218	6,04
1021,461	5,04
1021,703	1,14
1021,946	3,54
1022,189	3,64
1022,432	4,64
1022,675	6,34
1022,918	4,14
1023,161	2,44
1023,403	5,84
1023,646	-0,56
1023,889	6,24
1024,132	6,24
1024,375	3,04
1024,617	0,14
1024,86	3,34
1025,103	2,04
1025,346	-1,96
1025,588	-2,06
1025,831	1,94
1026,074	4,34
1026,317	5,74
1026,559	6,44
1026,802	5,04
1027,045	4,84
1027,287	4,24
1027,53	3,34
1027,773	5,74
1028,015	1,64
1028,258	2,94
1028,501	2,74
1028,743	2,04
1028,986	2,24
1029,228	10,54
1029,471	3,44
1029,714	5,44
1029,956	3,84
1030,199	2,84
1030,441	2,74
1030,684	2,24
1030,926	0,74
1031,169	3,94
1031,411	6,94
1031,654	6,04
1031,896	2,84
1032,139	3,44
1032,381	5,34
1032,624	3,94
1032,866	3,64
1033,109	4,64
1033,351	2,44
1033,594	5,34
1033,836	0,64
1034,079	0,14
1034,321	2,74
1034,563	4,24
1034,806	1,74
1035,048	5,34
1035,29	4,04
1035,533	0,74
1035,775	2,44
1036,018	5,74
1036,26	3,54
1036,502	8,24
1036,744	2,34
1036,987	0,84
1037,229	4,14
1037,471	1,94
1037,714	12,24
1037,956	3,74
1038,198	5,14
1038,44	5,84
1038,683	10,24
1038,925	2,84
1039,167	2,24
1039,409	3,54
1039,651	0,44
1039,894	2,94
1040,136	2,24
1040,378	6,44
1040,62	6,84
1040,862	4,44
1041,104	1,24
1041,347	0,64
1041,589	5,34
1041,831	7,44
1042,073	5,24
1042,315	2,54
1042,557	6,84
1042,799	8,74
1043,041	3,84
1043,283	2,14
1043,525	6,34
1043,767	7,44
1044,009	3,94
1044,251	1,24
1044,493	-0,66
1044,735	1,44
1044,977	4,14
1045,219	4,94
1045,461	5,74
1045,703	2,24
1045,945	5,44
1046,187	4,94
1046,429	8,44
1046,671	0,94
1046,913	5,94
1047,155	2,64
1047,397	4,54
1047,639	5,44
1047,881	7,74
1048,122	3,74
1048,364	3,54
1048,606	5,34
1048,848	5,64
1049,09	5,24
1049,332	3,54
1049,573	2,64
1049,815	4,14
1050,057	6,44
1050,299	4,94
1050,541	5,34
1050,782	3,84
1051,024	-0,16
1051,266	2,54
1051,508	7,64
1051,749	2,24
1051,991	2,24
1052,233	8,84
1052,474	-0,96
1052,716	1,24
1052,958	6,74
1053,199	10,34
1053,441	5,54
1053,683	2,44
1053,924	4,74
1054,166	8,74
1054,408	-0,66
1054,649	4,24
1054,891	6,54
1055,132	3,74
1055,374	-0,26
1055,616	3,34
1055,857	1,14
1056,099	7,04
1056,34	6,94
1056,582	-0,76
1056,823	3,14
1057,065	2,24
1057,306	6,24
1057,548	2,64
1057,789	7,24
1058,031	6,74
1058,272	7,04
1058,514	2,64
1058,755	2,64
1058,997	5,14
1059,238	1,14
1059,479	6,04
1059,721	4,14
1059,962	5,24
1060,204	4,44
1060,445	5,94
1060,686	6,54
1060,928	3,44
1061,169	5,84
1061,41	2,74
1061,652	8,04
1061,893	2,64
1062,134	8,74
1062,376	2,54
1062,617	5,34
1062,858	3,14
1063,1	7,04
1063,341	3,44
1063,582	2,94
1063,823	7,74
1064,065	3,44
1064,306	4,84
1064,547	6,34
1064,788	5,44
1065,029	5,14
1065,271	2,74
1065,512	2,04
1065,753	0,94
1065,994	6,64
1066,235	4,24
1066,476	6,44
1066,718	4,74
1066,959	7,04
1067,2	3,84
1067,441	12,84
1067,682	9,04
1067,923	6,64
1068,164	2,94
1068,405	4,44
1068,646	0,74
1068,887	9,54
1069,128	5,04
1069,369	9,94
1069,61	3,24
1069,851	4,74
1070,092	4,44
1070,333	6,64
1070,574	3,54
1070,815	4,34
1071,056	8,54
1071,297	7,54
1071,538	8,54
1071,779	1,84
1072,02	9,94
1072,261	13,24
1072,502	3,64
1072,743	6,04
1072,984	6,74
1073,225	2,44
1073,466	5,04
1073,706	7,04
1073,947	2,74
1074,188	6,24
1074,429	10,34
1074,67	7,44
1074,911	6,54
1075,151	6,84
1075,392	5,94
1075,633	7,04
1075,874	7,24
1076,114	4,64
1076,355	7,54
1076,596	7,44
1076,837	5,04
1077,077	5,24
1077,318	2,34
1077,559	6,34
1077,8	5,04
1078,04	4,84
1078,281	6,24
1078,522	4,04
1078,762	3,84
1079,003	7,44
1079,244	2,24
1079,484	7,04
1079,725	5,04
1079,965	4,34
1080,206	4,54
1080,447	7,14
1080,687	5,34
1080,928	10,34
1081,168	3,04
1081,409	6,44
1081,649	8,04
1081,89	5,84
1082,131	9,74
1082,371	10,64
1082,612	3,84
1082,852	3,64
1083,093	4,64
1083,333	5,44
1083,573	1,64
1083,814	7,34
1084,054	8,04
1084,295	14,74
1084,535	9,84
1084,776	6,74
1085,016	7,74
1085,257	5,04
1085,497	14,04
1085,737	11,74
1085,978	6,54
1086,218	6,34
1086,458	5,24
1086,699	3,34
1086,939	6,34
1087,179	9,64
1087,42	6,54
1087,66	6,54
1087,9	5,04
1088,141	6,24
1088,381	8,14
1088,621	3,94
1088,861	8,24
1089,102	8,54
1089,342	5,34
1089,582	6,44
1089,822	10,44
1090,063	6,54
1090,303	5,14
1090,543	9,74
1090,783	7,24
1091,023	8,94
1091,263	4,44
1091,504	3,54
1091,744	4,24
1091,984	5,94
1092,224	7,74
1092,464	6,54
1092,704	3,64
1092,944	10,34
1093,184	3,34
1093,425	4,04
1093,665	3,14
1093,905	4,84
1094,145	6,64
1094,385	10,44
1094,625	7,14
1094,865	6,14
1095,105	6,44
1095,345	6,14
1095,585	2,54
1095,825	7,24
1096,065	8,34
1096,305	7,14
1096,545	11,24
1096,785	7,74
1097,025	8,94
1097,265	5,14
1097,504	4,74
1097,744	4,14
1097,984	6,74
1098,224	7,94
1098,464	6,54
1098,704	8,64
1098,944	8,64
1099,184	5,14
1099,423	5,04
1099,663	4,24
1099,903	3,54
1100,143	6,84
1100,383	7,44
1100,622	4,14
1100,862	8,54
1101,102	2,94
1101,342	7,44
1101,582	6,34
1101,821	8,84
1102,061	10,44
1102,301	7,34
1102,54	7,74
1102,78	7,44
1103,02	4,64
1103,26	3,24
1103,499	6,94
1103,739	7,24
1103,979	5,64
1104,218	8,74
1104,458	7,74
1104,697	3,14
1104,937	6,44
1105,177	3,24
1105,416	0,94
1105,656	4,74
1105,896	5,04
1106,135	5,24
1106,375	5,94
1106,614	4,14
1106,854	9,64
1107,093	6,54
1107,333	5,14
1107,572	5,04
1107,812	7,34
1108,051	9,14
1108,291	5,54
1108,53	3,74
1108,77	8,74
1109,009	6,44
1109,249	5,64
1109,488	4,24
1109,728	7,54
1109,967	3,64
1110,206	8,04
1110,446	8,64
1110,685	4,84
1110,925	6,44
1111,164	11,24
1111,403	5,14
1111,643	5,34
1111,882	3,84
1112,121	4,54
1112,361	7,34
1112,6	6,04
1112,839	6,14
1113,079	8,04
1113,318	4,74
1113,557	6,74
1113,796	8,04
1114,036	4,34
1114,275	2,64
1114,514	8,74
1114,753	9,44
1114,993	12,04
1115,232	5,84
1115,471	8,24
1115,71	6,84
1115,949	8,04
1116,188	2,04
1116,428	12,04
1116,667	5,34
1116,906	8,14
1117,145	9,74
1117,384	13,34
1117,623	5,84
1117,862	7,84
1118,101	5,94
1118,341	6,54
1118,58	10,84
1118,819	11,04
1119,058	5,44
1119,297	3,04
1119,536	5,84
1119,775	10,24
1120,014	2,44
1120,253	1,94
1120,492	5,34
1120,731	4,44
1120,97	1,84
1121,209	7,74
1121,448	4,74
1121,687	3,44
1121,926	6,24
1122,165	3,04
1122,404	7,94
1122,642	10,44
1122,881	6,04
1123,12	12,64
1123,359	8,74
1123,598	5,74
1123,837	10,44
1124,076	5,24
1124,315	11,14
1124,553	5,64
1124,792	4,94
1125,031	9,24
1125,27	6,14
1125,509	8,94
1125,747	7,64
1125,986	7,04
1126,225	8,14
